Time,Condition,Age,ChannelPair,connect_overtime_LA_EEG_12_P04_CTS_MTH_chanpair_12m.mat,connect_overtime_LA_EEG_12_P05_CTS_MTH_chanpair_12m.mat,connect_overtime_LA_EEG_12_P06_CTS_MTH_chanpair_12m.mat,connect_overtime_LA_EEG_12_P07_CTS_MTH_chanpair_12m.mat,connect_overtime_LA_EEG_12_P08_CTS_MTH_chanpair_12m.mat,connect_overtime_LA_EEG_12_P10_CTS_MTH_chanpair_12m.mat,connect_overtime_LA_EEG_12_P11_CTS_MTH_chanpair_12m.mat,connect_overtime_LA_EEG_12_P16_CTS_MTH_chanpair_12m.mat,connect_overtime_LA_EEG_12_P17_CTS_MTH_chanpair_12m.mat,connect_overtime_LA_EEG_12_P19_CTS_MTH_chanpair_12m.mat,connect_overtime_LA_EEG_12_P20_CTS_MTH_chanpair_12m.mat,connect_overtime_LA_EEG_12_P21_CTS_MTH_chanpair_12m.mat,connect_overtime_LA_EEG_12_P22_CTS_MTH_chanpair_12m.mat,connect_overtime_LA_EEG_12_P23_CTS_MTH_chanpair_12m.mat,connect_overtime_LA_EEG_12_P24_CTS_MTH_chanpair_12m.mat,connect_overtime_LA_EEG_12_P25_CTS_MTH_chanpair_12m.mat,connect_overtime_LA_EEG_12_P26_CTS_MTH_chanpair_12m.mat,connect_overtime_LA_EEG_12_P27_CTS_MTH_chanpair_12m.mat,connect_overtime_LA_EEG_12_P28_CTS_MTH_chanpair_12m.mat
-1000,cane,12m,FC,0.515904385063185,0.557596781347458,0.538728483954152,0.379795439947381,0.594416419356421,0.432360084168766,0.584834922031341,0.418442003369394,0.576592964141223,0.535730916119538,0.510012776787019,0.510140954885112,0.55443795413179,0.620532105861048,0.642670543883629,0.597861104071478,0.623989246438878,0.537218113822952,0.46732991275948
-990,cane,12m,FC,0.517812505868946,0.562021996265422,0.539973484739696,0.383051517274205,0.599712196325223,0.434373810165416,0.579450251633222,0.417383282875091,0.578511524876422,0.533308290895069,0.51025827442099,0.509646765188638,0.555045779609136,0.614359056384075,0.645828921955956,0.594287198541535,0.627671414566553,0.536932879419079,0.46821722169247
-980,cane,12m,FC,0.519474744961751,0.565915879673774,0.540588696288228,0.387302558254967,0.604119517488158,0.435844338865397,0.573686873388572,0.417593805407898,0.581082928769149,0.530832888897615,0.510486773915187,0.509034205118229,0.555024568043906,0.608218306575147,0.649157874385236,0.591055853703091,0.630857150936475,0.537125918455198,0.469131756903849
-970,cane,12m,FC,0.520712637394615,0.569096621352019,0.540809537072792,0.390928478452079,0.60794604997248,0.437045231181342,0.567170436981088,0.418410846115519,0.584078410292632,0.529590160732897,0.511129744420862,0.508500017934929,0.554824892356677,0.602120070374699,0.652061802077559,0.587739726003731,0.633068786579425,0.537874360558135,0.470173919371633
-960,cane,12m,FC,0.521144648414192,0.571431560310094,0.54050085111682,0.394437399883495,0.610876368314076,0.437891203537484,0.56015866607093,0.419680624687917,0.587422353234707,0.528774526187552,0.512826526177521,0.508118619648619,0.554735393145942,0.596462963056136,0.654366859220581,0.583617533813463,0.634166112260419,0.539080636086151,0.472158204587541
-950,cane,12m,FC,0.52093168979508,0.573139479392486,0.539589860172278,0.39793196540344,0.613279877653695,0.439053860235039,0.55290191194319,0.422034018527233,0.590080493572602,0.52799830620473,0.515982059877043,0.508055985866005,0.554768696120265,0.591703652431616,0.655647371151589,0.578979638790925,0.634660611655245,0.540874569217174,0.475503230430706
-940,cane,12m,FC,0.520449074908517,0.573871446552289,0.538543982388731,0.400679741384666,0.615379715891038,0.440835936068045,0.545924228528833,0.424504059451121,0.591224280483002,0.526845157887478,0.520580548827865,0.507981671940954,0.554462500058421,0.588282394179036,0.654962998366697,0.57367551399151,0.634712709266619,0.543306343126954,0.480026311692896
-930,cane,12m,FC,0.519879948328912,0.574300082687001,0.538544968014508,0.402108682210008,0.617139714171525,0.443345237984607,0.539404634956268,0.427027064885974,0.589736083000185,0.524829561150587,0.526050327519542,0.508405471363331,0.553368906382851,0.586298862283888,0.652268687597277,0.568074309561836,0.63405795199189,0.546248080829073,0.485468982020705
-920,cane,12m,FC,0.519035471822986,0.574402436053598,0.539573508634489,0.403042046416387,0.618566165670184,0.446407122225259,0.532878827097118,0.430084036069612,0.585326357720258,0.522473495473106,0.531525153341028,0.509739270746601,0.551257084603276,0.585198904003551,0.647566282077815,0.562950412408502,0.632718390469963,0.549407726767753,0.491432586529826
-910,cane,12m,FC,0.517950228081131,0.574205061822966,0.541231154687989,0.404649712338888,0.619777936590906,0.449196591501095,0.52558046453815,0.433676830929672,0.579070025112268,0.519201730233915,0.536094989314914,0.512227373921987,0.548837528460533,0.584398820147239,0.641796828571996,0.558827830879804,0.629935901090877,0.552184925770136,0.497290024241229
-900,cane,12m,FC,0.516503175151076,0.573416642378841,0.543648769954536,0.40722005976752,0.620651090823532,0.451321746846792,0.518119316482384,0.437445792417357,0.572638588033068,0.51507228665057,0.540620834573507,0.515499724670162,0.545299976691403,0.583513274831844,0.635800908217452,0.555662339664602,0.625479476814329,0.554846303222021,0.502685230677775
-890,cane,12m,FC,0.515484017389951,0.571417429787247,0.545624170198097,0.411599959003256,0.621528272098116,0.453288136780926,0.510713556056814,0.441458684163702,0.566970969605049,0.511014593048408,0.545764699093525,0.518780125401686,0.541268739068497,0.582359098851339,0.629457194135462,0.553392280208095,0.619222506319236,0.557432049352396,0.507514970796858
-880,cane,12m,FC,0.514760211006356,0.568330131993908,0.546601363257411,0.418467815931208,0.622468395216605,0.456306210611184,0.504020804110193,0.446343784312721,0.562812763419421,0.50696125459506,0.551116640455915,0.521494480539156,0.536760893107203,0.580872939535994,0.622979927187514,0.552214286881909,0.612130650460499,0.559336797486851,0.510851292920496
-870,cane,12m,FC,0.514078547888081,0.564650976574213,0.545911310511657,0.426964487280484,0.623476572793581,0.460288953278637,0.497745009298609,0.4521049984244,0.559525819307967,0.502545828924515,0.556455839422432,0.523615824916184,0.532414881700299,0.579049846716956,0.616662949304922,0.552032633296528,0.604906556036287,0.560584411044499,0.512533550893453
-860,cane,12m,FC,0.513797727442095,0.560111623696918,0.543289665131573,0.436992882559699,0.624756450215949,0.464587277995265,0.492244300491992,0.458376682262157,0.557090198690913,0.49850470358059,0.562368155478357,0.525683310388407,0.528502610292119,0.576628255234488,0.610785053645428,0.552121110337459,0.59725119619515,0.561316390528482,0.512650130948448
-850,cane,12m,FC,0.513881082955491,0.554074419578831,0.53764530606197,0.447703393903879,0.626588465575662,0.468499212885214,0.487482894742084,0.464874306425624,0.555030074293421,0.49508655017754,0.567793329553605,0.528223751633938,0.524667860322258,0.574010318063757,0.60564811408351,0.55077686574434,0.589765344078583,0.561438415901031,0.511905025202513
-840,cane,12m,FC,0.514270169051788,0.546984528603291,0.529234952840724,0.458481299458719,0.62914775515951,0.471307509901082,0.483714706278952,0.47084706255421,0.553195904705557,0.493335094725794,0.572763675593426,0.53109567334301,0.520649118852685,0.571682223189024,0.601316714120376,0.548243835504602,0.582173860136167,0.560935177106485,0.510650664298208
-830,cane,12m,FC,0.514964535275428,0.539623748671919,0.518770859137479,0.468640099606269,0.631903498213474,0.473771749201529,0.481289898722893,0.475346953449942,0.552308660290293,0.493751900644979,0.577787010618275,0.533380674464483,0.516350974878242,0.569804285350061,0.598093973293467,0.544565890536889,0.574234671850126,0.560017023696524,0.510360930492469
-820,cane,12m,FC,0.515964333829517,0.532298730363154,0.506932244898595,0.478778595090289,0.634545319211585,0.47584589026952,0.479359319471682,0.479214383008998,0.552987268099644,0.496022030575455,0.583359876614753,0.535088166869347,0.512089866685819,0.56824959689853,0.59587391839153,0.540457183423379,0.566940279760382,0.559232257033274,0.511230472198211
-810,cane,12m,FC,0.516618772166004,0.525332409216229,0.494946284598263,0.48968632915128,0.637054954295477,0.47825390550699,0.477467190730637,0.483136798755321,0.554864405704747,0.500653057264581,0.589557064759128,0.536251412280154,0.508815930989311,0.567082320936227,0.593617113878266,0.536062905322758,0.55997493300363,0.558474769833149,0.511830830696093
-800,cane,12m,FC,0.516430668416873,0.519380668494553,0.484046289183231,0.501315712588585,0.639595950258963,0.481010527385547,0.475225771838265,0.487088917727672,0.558280445884516,0.507127263337254,0.596600940927961,0.537145878895617,0.506185401038695,0.566127838219118,0.591701554210453,0.531100968586323,0.552576503647046,0.557235308398131,0.513128945391283
-790,cane,12m,FC,0.515834711682291,0.515099682101976,0.474248561060445,0.513121882828356,0.641895443828184,0.483845136422686,0.472085991884167,0.49105325578303,0.562651439134678,0.515336574608373,0.604363032615174,0.537696211286552,0.50390514060133,0.565305980176921,0.589595009994545,0.525856940389914,0.545161216360984,0.556045980808684,0.515980362293423
-780,cane,12m,FC,0.515316659895468,0.512821306685017,0.464958409117285,0.524021703731885,0.64391586089961,0.486492917430372,0.469042491488012,0.493655524049375,0.567529078213324,0.525097337039545,0.612252732598918,0.53807452703368,0.50168828303881,0.564498292728642,0.587973622673958,0.520854580595383,0.538459348642992,0.554989699985593,0.520470935120104
-770,cane,12m,FC,0.514946319277057,0.51196969838733,0.455807429989193,0.533825040664256,0.645509013700925,0.487979752495068,0.466834725148379,0.49473017973647,0.572760312202011,0.535800732529637,0.620171185167081,0.538326150823734,0.499990397647065,0.563518006806567,0.587054771047771,0.51627909060769,0.531976440522954,0.554106519516271,0.526464651380654
-760,cane,12m,FC,0.514634899252526,0.512693691454404,0.446556101646765,0.542655148850574,0.646430556003063,0.487683001835336,0.46609820779886,0.494538103180135,0.577907664038586,0.546224940337225,0.627418970840582,0.538776308959146,0.499117686491981,0.562585436512982,0.587427525554021,0.51265722186738,0.526226185081658,0.553569346815128,0.533421546930726
-750,cane,12m,FC,0.514750504571905,0.514273620356177,0.437153812296113,0.550281516440392,0.647239306335596,0.486244661654543,0.46600056816197,0.49319213986211,0.582059775867122,0.554962570268244,0.632606154007808,0.53974795925801,0.498536419260443,0.561457112352923,0.588650450993878,0.510032304130653,0.521883568856251,0.553248498532242,0.541133452429911
-740,cane,12m,FC,0.515455459588769,0.516326508238347,0.427904292521889,0.555825408862265,0.648015538997947,0.484958237083785,0.466312940769805,0.490523371917124,0.585195274490432,0.56170771615704,0.635842174365772,0.541014911385228,0.498441254306793,0.560035264071274,0.590546506298388,0.509597664008418,0.518784403365609,0.552622569742348,0.549352329735687
-730,cane,12m,FC,0.516599083850126,0.51840146270768,0.420095587618652,0.558299391817661,0.64818466298281,0.48408424321471,0.466676994900966,0.487441501546084,0.587159103511106,0.567036232516192,0.637399730210617,0.542344200283051,0.498330447907515,0.558613630825981,0.593509897153413,0.510827794812353,0.516821411161997,0.551661531809631,0.557900615378597
-720,cane,12m,FC,0.517777189529498,0.520669742866478,0.415882850465124,0.558228111970703,0.64738338182134,0.483208532001373,0.466540762172043,0.484015338006652,0.587958196858556,0.570369316763366,0.638223511780885,0.543491751750125,0.498082291646708,0.55709417277458,0.597462971863828,0.513066001142593,0.516203250041464,0.54999756475003,0.566125627549891
-710,cane,12m,FC,0.518733960908461,0.523221900904136,0.417642090166893,0.554643650896476,0.645968341567427,0.482135727756656,0.465438942785164,0.479892335610852,0.587646599100965,0.571531432919373,0.637528725838339,0.544691305992027,0.497599549608369,0.555515007222918,0.602409024445035,0.51763837450425,0.516591125859809,0.547475299356041,0.573266588432013
-700,cane,12m,FC,0.519684455856008,0.526069104943179,0.422392123015703,0.549506148564192,0.643865010293945,0.480735268577832,0.462128731421552,0.47500943728183,0.58621580976756,0.570763157564434,0.636027660114196,0.545993588477095,0.496655354986879,0.553758870029415,0.608227807407299,0.524510233271734,0.517262083917692,0.543983872220393,0.579421181707726
-690,cane,12m,FC,0.520849828667728,0.528809669944193,0.429110968086628,0.543860733470394,0.641435830704113,0.478989190806337,0.457837842719163,0.469912712867637,0.583799609820574,0.568885592365398,0.633906430769634,0.546841667520856,0.4945019834697,0.552241276474883,0.614850491491251,0.532590085804638,0.517554603153611,0.539872053428652,0.585096817884295
-680,cane,12m,FC,0.522031785772891,0.531295370669434,0.437590348358257,0.538186509991572,0.638789743350983,0.476959060855636,0.452196294273181,0.465198674953089,0.580631801066893,0.566994943229517,0.63121889129641,0.546975989276499,0.491128384272613,0.551086450833314,0.621582540401541,0.542267936812122,0.51809769963693,0.535554353553465,0.590617600892054
-670,cane,12m,FC,0.523843036346767,0.533826616759662,0.447665761532533,0.53323784958807,0.635043156711063,0.474581038963071,0.445373357035468,0.461135174113283,0.57687549059556,0.565826173703896,0.627913039469609,0.546670917040542,0.486429292173371,0.550660056985321,0.627929328485326,0.55354364091553,0.518793041035702,0.53150077401338,0.595499395184021
-660,cane,12m,FC,0.526147952682573,0.536553073769616,0.458951266900123,0.528332489227789,0.630539150367438,0.471957869497986,0.43743960242064,0.457442437194669,0.572623390756065,0.566182628096012,0.624096830628937,0.545999691979516,0.480227182153664,0.551072847641198,0.633315632294966,0.56559844543292,0.520307285484297,0.527386528817211,0.599516291408351
-650,cane,12m,FC,0.528377734492513,0.539129906224997,0.471247595902262,0.5235006880168,0.625360245939871,0.469671810754103,0.428987410686402,0.454814909276948,0.568241998315657,0.567717608700257,0.620116706073056,0.545158272730576,0.47366318110054,0.552517597122618,0.637862140347239,0.57767882722077,0.523365957963038,0.522684508863497,0.602303886842855
-640,cane,12m,FC,0.530514227665076,0.540744075306656,0.484629810815702,0.519259206295197,0.619277563601884,0.467728891805137,0.420342576399419,0.453734940725511,0.563867332935824,0.570577172282639,0.616839717545846,0.544446845636288,0.466842137947618,0.55511734438911,0.641747827863736,0.589307143934541,0.527558251824048,0.517425336357012,0.603687547404646
-630,cane,12m,FC,0.5329192132863,0.541421897634044,0.499180825064542,0.515859697962171,0.612280738665546,0.465966731527642,0.410402864954987,0.453255029988619,0.559517043206319,0.573881838028237,0.614833558044028,0.543872861726973,0.459022730928719,0.558871167001621,0.644782849587889,0.600286190309923,0.532221119494322,0.512334910536931,0.60365276596813
-620,cane,12m,FC,0.535487659284161,0.541114012472967,0.514148076103841,0.513606964528272,0.604506981657893,0.464132538174742,0.39876527674926,0.454035183493929,0.555215247354182,0.576841941093256,0.613938994840499,0.542754072468482,0.450176258067686,0.563508101770908,0.646962942327335,0.610258236573805,0.535873596906323,0.507311916367491,0.602023139533967
-610,cane,12m,FC,0.538532420731869,0.540134767604451,0.528772127136648,0.51311917451137,0.596312374945397,0.461632336767082,0.386332187499453,0.45579853541234,0.551493002871946,0.579112076524617,0.614048365034764,0.541195971556437,0.442008356405094,0.568677364703944,0.647887116793653,0.619032824264448,0.538553873135601,0.502636360155702,0.599074835616998
-600,cane,12m,FC,0.542169422896568,0.539241837059121,0.541593942651977,0.514072103579175,0.588092528078318,0.457447362873651,0.373693730192335,0.458387037774112,0.547974634349617,0.581018312820848,0.614477041265211,0.539318843850162,0.4348734066229,0.574222859105877,0.64775646702914,0.626527527873697,0.541762767106717,0.498026733943592,0.595453568847782
-590,cane,12m,FC,0.546922801664048,0.5387319847885,0.551965139479483,0.515728606638425,0.580843575038961,0.452404982010311,0.361828473737027,0.461373182898007,0.544501868429041,0.582875433654523,0.615104023342462,0.537275310778568,0.429660943418701,0.58029076861923,0.645787344575679,0.631232817232697,0.545288363587053,0.493510518062692,0.590606673735383
-580,cane,12m,FC,0.55211602335697,0.538783015720094,0.55928729517492,0.517503662479121,0.574306165372202,0.445885064883743,0.351848076961512,0.4649331299307,0.540939349488632,0.584803245167868,0.615131641914328,0.535139834383331,0.427153080588021,0.58674028423754,0.642083732044389,0.63337205982851,0.549384147707769,0.489360019811441,0.584507236326217
-570,cane,12m,FC,0.55704774486925,0.5395309474628,0.565383095712784,0.519562507877185,0.568411431185497,0.437913592212593,0.342974407382276,0.469551954894409,0.537389392796833,0.586716620444975,0.614294429641232,0.53299212364259,0.426890557646431,0.593266050133802,0.636455567668643,0.63307565102935,0.553983776639773,0.486309536817921,0.577507692402068
-560,cane,12m,FC,0.561594523128657,0.541156853740904,0.570598957185757,0.521376378607466,0.563313672544834,0.429974797501373,0.336495062735555,0.475197724891097,0.534458287446128,0.588257508495549,0.612317596354397,0.530653876207424,0.428095357386264,0.5991351203315,0.629066254699689,0.631927661505131,0.559021663821098,0.484225421579762,0.569655479171008
-550,cane,12m,FC,0.564979267346806,0.543274586326401,0.574896881010054,0.522647800934457,0.558510422636174,0.422140893009697,0.335294047771265,0.48082667339191,0.532810560665071,0.588928853955425,0.609758847964885,0.527877471956537,0.43056014179166,0.604072688975811,0.620516363050427,0.629707565582492,0.564109478502589,0.48279460223259,0.560905094941537
-540,cane,12m,FC,0.566888658020624,0.545747689060733,0.577388898523162,0.523945289887627,0.554648011078328,0.41469664257392,0.337460653582034,0.48647895066007,0.534095094159887,0.588424529178077,0.606469798318561,0.524479389993435,0.434067281342078,0.608284441777691,0.611103341291007,0.626706507996104,0.569330126446565,0.481682567653306,0.551253672283105
-530,cane,12m,FC,0.566935353421096,0.548708956390044,0.578580231276091,0.525277294732069,0.552078772777739,0.408138563544737,0.342101300650715,0.491727644662904,0.538207704922738,0.586710719899527,0.601926862812546,0.520722908966122,0.438171299844753,0.611730796063531,0.600860991239525,0.622781151854429,0.575228067194498,0.481340697024544,0.540560965079401
-520,cane,12m,FC,0.565516285474846,0.551276076028038,0.577992724821798,0.527208595290275,0.550386443240033,0.40262029119553,0.348174955620781,0.495855688231598,0.544407345393738,0.584130547310883,0.595606129943188,0.517012742255389,0.44258607407745,0.614149633304819,0.590609259113631,0.618431230365477,0.581633015233226,0.481461384790018,0.52916856928229
-510,cane,12m,FC,0.562785856525328,0.553282732242051,0.575996620550532,0.530175346929783,0.549442480829838,0.398088722290257,0.354882143208728,0.49860899252416,0.552399979870033,0.581331510966449,0.587370042657904,0.514237330064819,0.447105085110184,0.615885063967243,0.580379469505368,0.613119298097396,0.588187065551397,0.48228756110241,0.517350645185694
-500,cane,12m,FC,0.55938304808058,0.554836216202955,0.573205629454059,0.533759923003355,0.548889961610622,0.393822140763965,0.362915440674629,0.501283257110347,0.561933339931252,0.578800526632264,0.578146265268613,0.512761172738541,0.452178152822592,0.616844721876947,0.571208323218475,0.607165799323469,0.594804458177118,0.483548139205459,0.505764263979744
-490,cane,12m,FC,0.556210546427135,0.555690913130108,0.570597851541095,0.538325705026333,0.547983879583539,0.390395762395986,0.37086282009096,0.503947089184136,0.571910816745293,0.576999031037697,0.567957598252024,0.512663994178424,0.457679315877694,0.617224816867758,0.562906430882656,0.601075737844598,0.600545048606772,0.484947431595828,0.496097372002269
-480,cane,12m,FC,0.552894101324873,0.555626076031869,0.568657522859401,0.54369163651512,0.547199972088035,0.387364191019843,0.378159092726083,0.506013338977386,0.581830555833783,0.575890621019631,0.5573545617348,0.513420381520585,0.463121963304454,0.617162468579805,0.555175808774882,0.594983898294562,0.604664095476546,0.486953221061055,0.488884147023892
-470,cane,12m,FC,0.549867740475217,0.555026177071194,0.566850408046821,0.549911338812887,0.546453152666192,0.38485758398233,0.3850437002465,0.507693534661359,0.591198970996596,0.575761943662691,0.547510155185663,0.514452200401274,0.468223555268038,0.617068788280839,0.547403762395083,0.588480977917015,0.607458340772184,0.489537070675052,0.48377773445815
-460,cane,12m,FC,0.547356109804173,0.554858748887805,0.565177345460958,0.556421457453497,0.546461839186362,0.384279018143702,0.39217835222436,0.508857891824956,0.599661919936155,0.577008992226108,0.538883817927433,0.515395351440208,0.472910142500597,0.617244034550906,0.539896385533277,0.581546064967628,0.60922120319538,0.492387213876725,0.481138449886844
-450,cane,12m,FC,0.545516553393082,0.555400756092125,0.563256865075596,0.56342448548999,0.547521830875311,0.384778479638556,0.398420355314686,0.509931265629565,0.607069259258404,0.578950082461931,0.531319162076571,0.516570943098855,0.476349514408656,0.617845151343484,0.532723616934069,0.574127854815481,0.609523487187928,0.495688607042059,0.480921085955001
-440,cane,12m,FC,0.544936612798355,0.556436332121092,0.561128368349017,0.570859588831684,0.549511887302513,0.386380931097998,0.404362126029176,0.511019499424475,0.613000550053461,0.581637017654915,0.524600496677998,0.517620445052756,0.478327822293708,0.618470671963757,0.526102056096912,0.567286104007191,0.608225969870422,0.499325033134365,0.483604755731829
-430,cane,12m,FC,0.545230010823828,0.557537517661206,0.559729264057455,0.577907440152408,0.552421681964701,0.389976777656674,0.409645255268956,0.510983342908882,0.617176887025958,0.584674654548837,0.518358829506837,0.518415122967105,0.479889919546843,0.618783061758553,0.52037509660848,0.561106280870194,0.605387332024069,0.503222055182537,0.487733563981993
-420,cane,12m,FC,0.546138454398841,0.559069226848067,0.559148680500166,0.584395984008489,0.556207217048728,0.396707179335948,0.413128108660982,0.510182478700242,0.61993869461654,0.586999766114088,0.513522251860861,0.519119570933188,0.481161331343522,0.618853413901595,0.515379295810603,0.555619466404133,0.601082536372463,0.507388086869612,0.492235754526607
-410,cane,12m,FC,0.547444334709194,0.560985630289055,0.55725846621931,0.590243090894785,0.560997008752564,0.406594552242313,0.414145483792076,0.508389577274032,0.620726076428949,0.58760008297651,0.51066090345487,0.519547236960972,0.482084942831025,0.618580558533117,0.511111895711519,0.550832863989762,0.595441095309512,0.512005176510636,0.497071966262855
-400,cane,12m,FC,0.548831891387405,0.562722928399148,0.553755884518026,0.595522907908193,0.566673431361332,0.418630480782766,0.413622846629157,0.505615986977267,0.618695721960805,0.586753621670147,0.50831945465773,0.519765048358138,0.482104881003558,0.618018542508723,0.507833764104459,0.546434017742863,0.589003639555642,0.516648397835503,0.501795314307273
-390,cane,12m,FC,0.550280539000592,0.564008459320225,0.549493396627702,0.599977382150656,0.573116514015939,0.432541163578899,0.412358187422258,0.501876759183728,0.614562157922481,0.585006733251796,0.506681815378177,0.519280391394708,0.480854547256401,0.616895110277596,0.504780232227978,0.542167278484305,0.581848660845349,0.5210422053777,0.506280809760667
-380,cane,12m,FC,0.552071624928494,0.564620490313133,0.545266575271028,0.603015501666642,0.580356266406513,0.447035528699018,0.410360806571701,0.49787161750555,0.609350881328498,0.58310951404924,0.505912962416095,0.518152846024113,0.478641353942607,0.615564540769284,0.501951277397878,0.538036610425526,0.573914775829581,0.525138681951596,0.510220704430855
-370,cane,12m,FC,0.554008759927523,0.564799148816832,0.541594324572746,0.604048531742008,0.587436827234565,0.461623390399327,0.408442962220058,0.493747048215484,0.603737611402229,0.581224791111726,0.505841399745621,0.516081247031387,0.476219521580879,0.614010970376141,0.499043129835886,0.53460922420994,0.565140012975004,0.529068294489229,0.513653639752141
-360,cane,12m,FC,0.556083407092583,0.565021174871827,0.538414491552455,0.602443284126027,0.594119883090494,0.475772654869259,0.406838298006275,0.489908214500005,0.598358582490055,0.579253344748962,0.50549303163996,0.513561310560124,0.47415104938568,0.612123824290873,0.495948536901432,0.531631427723387,0.555170315434998,0.532865081724442,0.516762006557026
-350,cane,12m,FC,0.558249380902539,0.565325969006945,0.535571454531015,0.599287478540857,0.600297068568165,0.488592848080873,0.405580159857988,0.486590173193166,0.593915774023613,0.577091519332399,0.50482507014388,0.510900645162655,0.471949125499296,0.610413275009526,0.492819788819725,0.530275221164966,0.544952264667398,0.536532247096522,0.519724547144483
-340,cane,12m,FC,0.560005493611016,0.564940858284581,0.532698797073401,0.595066175664179,0.606389283034624,0.501378535894736,0.404000760688676,0.483797514806964,0.590618368209989,0.575062644002243,0.503981636390366,0.508435385296744,0.470054989061338,0.608740012120298,0.489657103726533,0.52824476457579,0.535604390087077,0.539938241018591,0.522837042487846
-330,cane,12m,FC,0.561219232472408,0.563231125285981,0.528376662427419,0.59016235019383,0.612488924967493,0.51347826060541,0.40144505079562,0.481929574972257,0.588041175405328,0.573417251264274,0.501651182798433,0.506023829118522,0.468423610878821,0.607549027643174,0.486709701691638,0.524965307873611,0.528230472913735,0.542922961244298,0.525888148589461
-320,cane,12m,FC,0.561700669813334,0.560076773455871,0.523074275766491,0.58548085454227,0.618558528682475,0.525234699487354,0.39873499690555,0.480651443277974,0.585511216871252,0.571444621704865,0.499682225266568,0.503845792270744,0.467050670466491,0.606888937644183,0.48468993923996,0.520790304106007,0.522868700108173,0.54517433039181,0.528712659023237
-310,cane,12m,FC,0.561390329254403,0.555299202290574,0.518701610884227,0.581294128279806,0.624958549370637,0.536495123772442,0.396649639344739,0.478906129472227,0.582390788842429,0.56929845573956,0.499177483508853,0.50200566145133,0.466092891495504,0.606474608299175,0.483792210306757,0.516180632535487,0.51948761296806,0.546559583494153,0.531544814526832
-300,cane,12m,FC,0.560352465115772,0.549443980684291,0.515143241471267,0.578293614461897,0.63089964930319,0.547210020924822,0.395833767544095,0.476301155386969,0.578188395108636,0.567344039497364,0.499540384098652,0.500994901665948,0.465855671089311,0.605877840251402,0.483889667891275,0.511179759297284,0.517894738472105,0.546894481106382,0.534961827526489
-290,cane,12m,FC,0.558407738326959,0.54234693507336,0.512153182760841,0.575568745489064,0.636322320464076,0.557551490105993,0.396520168933885,0.47388083408987,0.573261755281318,0.56499941390053,0.501084204983923,0.500528920624611,0.465918250285222,0.605016718422016,0.485565868855806,0.507040736474194,0.517315224045433,0.545685102822969,0.538649546936953
-280,cane,12m,FC,0.555606303037405,0.534062857474203,0.510963416385017,0.572816539028594,0.641638476568571,0.566369219502559,0.398162709292278,0.471135892367106,0.568020799930413,0.562193161023515,0.503411709224756,0.49974088439954,0.466341700449012,0.603857036167279,0.488218280686546,0.504476640204686,0.517052904748865,0.543082754164459,0.542552611541358
-270,cane,12m,FC,0.552238806375496,0.524791182373803,0.510506890527792,0.570118790768757,0.646820667161946,0.57353178196507,0.401021854624505,0.466858691699338,0.562342212718518,0.559329267826942,0.50546841919537,0.498709916319556,0.466738964469873,0.602704405694022,0.491707651874038,0.503132613213838,0.517303261999853,0.539574551327546,0.547397375112585
-260,cane,12m,FC,0.548125845495422,0.515708775789095,0.511074055445607,0.567427351601025,0.651518263684331,0.579116503376386,0.404645864076152,0.461869552348843,0.556229961978131,0.556800942801845,0.507378451809547,0.498049401750474,0.467051206787129,0.60124357444044,0.495723679512482,0.503479093572748,0.517967505450845,0.535723427094883,0.552792959215152
-250,cane,12m,FC,0.543783138384505,0.506104851195531,0.512824098299366,0.565216669174536,0.655388118069533,0.583420806604942,0.408701590449635,0.45661557288848,0.551020457059219,0.554433839994424,0.508309021163166,0.497801645041014,0.467980070595556,0.599865080703025,0.499649533541794,0.50545036279839,0.518893948286463,0.531656625850735,0.558814730807024
-240,cane,12m,FC,0.539305467787679,0.496268402605449,0.515494023678528,0.563428573400132,0.658245616116337,0.586803888602388,0.413138175858396,0.451605931238625,0.54708326954952,0.55257559229136,0.507785778736338,0.497835360845305,0.469017648593864,0.598185655651664,0.504431140941009,0.50875641624146,0.519951487207269,0.528267163635252,0.565453531297542
-230,cane,12m,FC,0.534591286982129,0.487298223764365,0.519266396620702,0.561542371634236,0.660547294781018,0.588920984321587,0.417090590247071,0.446765102275198,0.542986711168908,0.551072507127092,0.506456069655786,0.498813390262182,0.469379549765988,0.596545658677855,0.510213674119407,0.513701140900432,0.520629041638898,0.52598642645024,0.572407882949767
-220,cane,12m,FC,0.530207049086185,0.479717192629217,0.524172957528747,0.56034487596368,0.662470197862614,0.589552067737322,0.419365547026987,0.442864951401604,0.538251425493303,0.549985641039662,0.504718884476878,0.501107327968024,0.469992626113806,0.595051585832826,0.516461351603198,0.519095644933692,0.520904399851051,0.525094619662631,0.579341763367031
-210,cane,12m,FC,0.526784030775114,0.473238226643004,0.53002997372123,0.560338996667072,0.664177142339958,0.589757242776683,0.420178667290742,0.440741339330325,0.532962018548988,0.548686163511412,0.502485144036535,0.504915131131292,0.470986035359039,0.593851106703873,0.522356809903285,0.524683675814286,0.521103182439842,0.525045710500677,0.585759920219762
-200,cane,12m,FC,0.524765509435953,0.468432339469931,0.535656528146822,0.561424118550975,0.665623420546341,0.590245519321978,0.419641434657223,0.440423245902816,0.527158162750623,0.547172933081263,0.499668975373307,0.509874437952175,0.470888260447521,0.59304083942337,0.527181854297054,0.530117628731386,0.521186847917109,0.525943678151648,0.591812389773376
-190,cane,12m,FC,0.524050995190057,0.466222967546704,0.538573359790282,0.563129547722628,0.666457219381439,0.590364002855287,0.41885850127456,0.441555151927418,0.52031030256359,0.545607000532885,0.497548642567609,0.515083785592044,0.469902124376385,0.592221014326422,0.530782726600631,0.534687234972274,0.521299714411848,0.527602388527717,0.59748934871974
-180,cane,12m,FC,0.523881084087057,0.467166776383295,0.538058610786594,0.565583702179894,0.667072587834501,0.590224906476714,0.419124573267262,0.44330130165455,0.51211200738869,0.543382159633601,0.497119695508327,0.52049256145136,0.468413048932974,0.591487651895779,0.533687529092239,0.53881707954776,0.522182911976662,0.529224040361467,0.602468363263706
-170,cane,12m,FC,0.523932711574397,0.470768677385001,0.534547309379417,0.568789308240207,0.667452983599325,0.590317357658683,0.421267195698803,0.445437392785367,0.502411355288788,0.540084985139729,0.498844757421064,0.525721509720892,0.466675272168017,0.590706166743651,0.536352968518531,0.542388878400658,0.524798784220516,0.530818445197645,0.607269758057255
-160,cane,12m,FC,0.524353683886912,0.477559621079806,0.529983230011099,0.572444988163293,0.667508060934781,0.590737379891103,0.4255887540211,0.448313085313629,0.491252341476022,0.535879153448374,0.502777179345057,0.530650318737946,0.46523153825808,0.589668290389338,0.53854589789498,0.545414298801516,0.529358515451493,0.53249977722224,0.611920053337978
-150,cane,12m,FC,0.524852192234251,0.486133661519771,0.526028614805668,0.57639382368248,0.667474675354116,0.591084136502616,0.430679093478196,0.452258053171559,0.478336135119358,0.531344011757493,0.508070438102121,0.535482869212856,0.464554351492292,0.588202574600943,0.540567356062149,0.548100374225919,0.53560476222981,0.534748872100529,0.615730311809762
-140,cane,12m,FC,0.524987453649434,0.495133097778503,0.523461208553203,0.5801418478242,0.667069984020169,0.591833612602853,0.435706103822365,0.45672877244965,0.464441710512498,0.526269101089046,0.513513027105532,0.540701688267187,0.464879929487927,0.586588642840581,0.542089017676909,0.55064806673051,0.54287668950787,0.537908970502357,0.618389359341144
-130,cane,12m,FC,0.52526414160089,0.504149606786677,0.522974100741949,0.583415297541892,0.666063645033434,0.593398740477126,0.439782735292743,0.461852249844474,0.450236959715871,0.520670033751584,0.518937586511786,0.546589826603629,0.466287787489283,0.585755629745038,0.542634262882886,0.552362692197293,0.551282810560367,0.542033403299815,0.620608362850084
-120,cane,12m,FC,0.525525640377698,0.513168974161401,0.524126520235708,0.586756710028109,0.664396138156802,0.595128191718923,0.442221987182587,0.467349072566064,0.436448378754078,0.515166439468549,0.524248822029189,0.553286467567248,0.468530872886424,0.585865931827582,0.541449437433108,0.552780841750728,0.560910874851129,0.546119790415809,0.622741532409889
-110,cane,12m,FC,0.524735225593238,0.522289852026164,0.525204302912239,0.590800781081925,0.661995762475603,0.595922419978797,0.443450520574279,0.472423072728816,0.423311785970382,0.509572976517702,0.529332685068615,0.560536837154578,0.471664755462232,0.586781868087257,0.538951700980359,0.554533931364254,0.570631772860613,0.550534045175208,0.624668651115556
-100,cane,12m,FC,0.522893775017656,0.531319254640224,0.525094584916501,0.594314112224685,0.658694511700812,0.595436336100126,0.443801561401382,0.477206622315532,0.411209675401312,0.503609768838495,0.534213649921385,0.567987074217047,0.475330254795485,0.588485288940017,0.534722244052259,0.557516503351128,0.578897140007048,0.555306418311162,0.627245557712941
-90,cane,12m,FC,0.519967349464464,0.540095221991489,0.523725521611139,0.596344732925798,0.654131430752202,0.593933439711645,0.442950547420318,0.481253802392371,0.400026317777824,0.497230723882995,0.538065755304946,0.57486292489774,0.479488057364835,0.590644220006234,0.529188359263425,0.561931074901881,0.585432998249841,0.559298558055184,0.63010197660907
-80,cane,12m,FC,0.516392463798062,0.548451583512806,0.521138271182657,0.597509329944585,0.648536120137068,0.591114584874142,0.441321348151958,0.484165433295082,0.389270701171926,0.491158582713056,0.540980105430011,0.58039393488857,0.484024107581365,0.592583592874926,0.523610756294275,0.566964109368596,0.590696343216674,0.563050352384251,0.632773505457719
-70,cane,12m,FC,0.512689752793788,0.556319199153832,0.51781803752096,0.598612755151071,0.642332505194115,0.586276022474025,0.439421507810805,0.485806116123355,0.377732128450764,0.485809090320816,0.542405848198175,0.584960918895309,0.488913723687338,0.594709332242948,0.520676197270901,0.573101084616619,0.594256885258546,0.56677304685582,0.634701002336319
-60,cane,12m,FC,0.509265202594803,0.563250537962987,0.513582492164843,0.599882345835259,0.635956744926119,0.579959951911014,0.437223410994519,0.486398814623867,0.365296118736166,0.48145222901142,0.542786403952894,0.588852462890946,0.494400805589399,0.597446413544244,0.521220847861389,0.578972214412186,0.595584310174173,0.570176706567402,0.635770062603624
-50,cane,12m,FC,0.505953783040138,0.569645151819901,0.507604422965625,0.601426411163399,0.629602344654547,0.573495867594118,0.434876552567917,0.486475437842349,0.352910063967656,0.478237008667776,0.542759076776363,0.591724480939765,0.500385801444429,0.600691015559185,0.52381457049825,0.58355845764584,0.594198062599304,0.573404846707192,0.635586336019498
-40,cane,12m,FC,0.50361048588188,0.575892049938198,0.500358673948573,0.602618559439778,0.6228440989377,0.567076696631794,0.433002849576297,0.486703681573052,0.340773675358393,0.476246071576805,0.542754473645493,0.593275922355907,0.506487738567676,0.604170052915376,0.52816728439653,0.587089877420321,0.590772734183724,0.575695678300162,0.634779640032255
-30,cane,12m,FC,0.502619981661308,0.581414082041268,0.493253156304652,0.602663220490034,0.616087389715588,0.561143819395051,0.430255338477454,0.487248760614656,0.329678343502317,0.475439448422156,0.542487287855167,0.593054788176537,0.512297681769376,0.607792277747033,0.533676619650509,0.58958137811783,0.58563605699178,0.576918949422875,0.633404413249529
-20,cane,12m,FC,0.50283389858026,0.585085757903323,0.485676438986816,0.601325576717498,0.609913786673787,0.556011385411134,0.425981743181095,0.488130378564233,0.321178086191772,0.475508038519416,0.542296383812336,0.59130912240855,0.518478401192113,0.611271273962014,0.539928581670745,0.590443066119183,0.579910352043249,0.57768985477676,0.6310633259559
-10,cane,12m,FC,0.504575029618224,0.587046844784004,0.476695259264697,0.598009086289499,0.604358131560015,0.550776441768554,0.420156461557954,0.489145248304769,0.315706958436522,0.476335942807887,0.542429785273758,0.588507320322189,0.524602950394207,0.614371391513978,0.546495201488448,0.590909504400776,0.573565266673979,0.578517605531306,0.62798614660106
0,cane,12m,FC,0.507188432207061,0.588270589717322,0.468106507112628,0.593825184811926,0.599524092846758,0.54579066319024,0.412912378097223,0.490238473227816,0.311707312104712,0.477771938668372,0.54356070695316,0.584655160244276,0.530911105823094,0.617130315704872,0.552531170906357,0.591587821281045,0.567158983273011,0.579231239600642,0.624656013844788
10,cane,12m,FC,0.509778720014236,0.588830958665196,0.460903455855104,0.588803939740614,0.5962944794911,0.541377753283591,0.404126632169719,0.491399051298384,0.3096931442419,0.479972476953153,0.547108560501429,0.580481592217166,0.538295159035697,0.619438098809808,0.558673061535864,0.591409426500457,0.561403048942427,0.57971986901936,0.620976599710689
20,cane,12m,FC,0.511846869794785,0.58895385230762,0.457390895142472,0.583145443001589,0.593279614916184,0.537582621682576,0.394257342398823,0.491894948090049,0.309230751112127,0.483028015768807,0.551333902061613,0.576512567767037,0.546818584691211,0.620889335945087,0.564235015592904,0.589763054726503,0.555902536935842,0.580705677213239,0.617179808031141
30,cane,12m,FC,0.5136017720614,0.588502360874931,0.455936964614327,0.576220251389783,0.590443660959837,0.534639294181117,0.383692102502022,0.492037301837745,0.310007955459238,0.486713443518543,0.555379303418769,0.572860847463553,0.555901260702948,0.621565302668185,0.568998792686263,0.586515759042603,0.550690333726346,0.581851628337985,0.613172961188355
40,cane,12m,FC,0.515517573599056,0.587401488365232,0.457483984790436,0.56741881030256,0.587724489026671,0.532751413626933,0.374166753872304,0.491957062559776,0.313121177853727,0.490869418491044,0.558685404657297,0.569312395921246,0.564305329443279,0.62105508859086,0.572610738784766,0.582024840271415,0.545662681599174,0.582452953254137,0.609329412432017
50,cane,12m,FC,0.51827801266123,0.585747456612941,0.463209013081027,0.557482413608924,0.585111290848954,0.532123799579923,0.366407971635843,0.491480240728903,0.317545090039184,0.495446235289761,0.560890534432066,0.565670694611991,0.570989847884519,0.619898943703482,0.574736676858489,0.576123224945797,0.540678215165498,0.582677822611252,0.606130213855814
60,cane,12m,FC,0.521272887474164,0.583747997524301,0.470511313802857,0.547722668436566,0.582492944685437,0.532000290900706,0.360063043774783,0.491157948033685,0.322580155789008,0.500160328414514,0.562134508554912,0.562043211081589,0.575046865900215,0.618355202062363,0.575880974778679,0.568892322195249,0.536371230853839,0.582393672006776,0.603654211288862
70,cane,12m,FC,0.525080230336535,0.581043356260862,0.478104697162057,0.539011485274277,0.57975808579135,0.532451430874842,0.355706987981193,0.490886139213321,0.328119712503912,0.504388735792285,0.563159811805055,0.558424038294343,0.576221059901502,0.616381124178194,0.576440373217933,0.560347924234006,0.532344798735836,0.581899227326982,0.60187594730741
80,cane,12m,FC,0.529511335213128,0.578194547624496,0.485486595603504,0.531409320319858,0.57765814741325,0.532616051425938,0.353548476524196,0.490366678444474,0.333240543311521,0.508645948126552,0.563685283927533,0.555445860829485,0.575758361197453,0.613739976854563,0.576605043456152,0.550843546066911,0.52838470657182,0.580745943757873,0.600384036194152
90,cane,12m,FC,0.534359258218529,0.575490972892641,0.491785664233105,0.524979571762466,0.57612314672569,0.531256722313569,0.352649562651686,0.489416738299634,0.336853035164378,0.512297250245962,0.563040430186172,0.553754960804153,0.574439527784284,0.61048665398277,0.577484161120003,0.540236177070844,0.524075572836021,0.578810514853062,0.599162275561073
100,cane,12m,FC,0.539000355313454,0.573235093783758,0.495823998504024,0.519688385506148,0.574934959797871,0.52921782663211,0.351837868104992,0.488359608310036,0.337655731438692,0.515735495952884,0.560889369248145,0.553344016716328,0.573016179542645,0.606862877391372,0.578766151263622,0.529118400213846,0.51975073748389,0.576480053491613,0.59839046264567
110,cane,12m,FC,0.543777815904742,0.571600063919166,0.498380273014407,0.515199746468439,0.57398255427562,0.527048298576487,0.351179435035615,0.487730259235135,0.335863524082544,0.518837958095869,0.557448955769349,0.554339971586183,0.571815221609004,0.603547731531166,0.580678776032415,0.518714910028007,0.515771140006572,0.573983017113028,0.598036920255766
120,cane,12m,FC,0.548640604568923,0.571011989909205,0.499584000835238,0.511553023275177,0.573095994043798,0.524808231416548,0.351492257005403,0.487625684024666,0.332056159650838,0.521145948739036,0.553930351393291,0.556870284450093,0.570842665058948,0.601247322620521,0.582440326011749,0.509360988085357,0.512572799755727,0.571183837097744,0.597814997219758
130,cane,12m,FC,0.553546113879436,0.571137107976227,0.499548017326179,0.508715650835366,0.572321400052714,0.522700610461337,0.352259554995054,0.488134889238925,0.32745896250739,0.521744198125864,0.55025907454595,0.560442738924589,0.57005535595725,0.600061093869763,0.583340620958377,0.502306224368321,0.510190587707834,0.567889485736625,0.597260174755418
140,cane,12m,FC,0.558241116265121,0.57155651397463,0.499292374379221,0.50604915363854,0.571491529444656,0.520673356741503,0.352419237443924,0.488666572739515,0.322588481487538,0.522470850878067,0.546043504864992,0.564151014148945,0.568339688762822,0.600248963222456,0.58262791968384,0.497748156375092,0.508653820926377,0.564323273802747,0.596249749918466
150,cane,12m,FC,0.562652180489779,0.571622446804365,0.500895112343121,0.503495190857063,0.571481259653775,0.517839108850593,0.352242423036102,0.489027821631487,0.317825712073782,0.522967515517776,0.541105187019477,0.567453718900383,0.565603086090376,0.601263510763087,0.580598665509953,0.495681886403936,0.507737854882923,0.560813931452809,0.595133324828095
160,cane,12m,FC,0.567146221949343,0.571679723245381,0.503221663499908,0.501798465998169,0.572347552750053,0.514997222315351,0.352142305127965,0.490125229774265,0.314099359573182,0.523116382845536,0.536022115915066,0.570412340529198,0.562364740806231,0.602319915457075,0.578250219003448,0.494929146798437,0.507217092764575,0.557916676818008,0.593752413889543
170,cane,12m,FC,0.571895972916291,0.571706356923332,0.50468607449133,0.501230672256921,0.573497210307114,0.512806294821922,0.352002128538392,0.491640805433029,0.312808298736301,0.52206066648201,0.530563479374308,0.572791474122643,0.55907188731497,0.603471948744969,0.575917391027271,0.494997862508217,0.507663855115676,0.555934917041912,0.591641519052614
180,cane,12m,FC,0.576530132046212,0.571955645311084,0.504539502947983,0.502301485335725,0.574556913209027,0.511078087366164,0.351808919696218,0.493541211676798,0.313830009867369,0.520587680262685,0.524936717962047,0.573696905523993,0.555743967359003,0.605163717525864,0.573476155503521,0.496430448205493,0.508539685570544,0.55447704618016,0.588951077807591
190,cane,12m,FC,0.580659301036021,0.572712014564159,0.504085531403682,0.506142211104962,0.575200663683509,0.5095534324357,0.351717611050958,0.496194764669178,0.316722150811524,0.519071690543112,0.519770003659748,0.573196725097564,0.552602939460828,0.607124780274687,0.571061645897419,0.499285370350437,0.509313791149855,0.552780563112464,0.585780865460391
200,cane,12m,FC,0.584552552710432,0.574197419834287,0.503450824181999,0.512659960019863,0.575402076733807,0.508001670912257,0.351666085825721,0.499743002749343,0.321525463857233,0.518030462021984,0.515483618230556,0.571764451069273,0.550648793771559,0.608852266862559,0.568678018625632,0.504215658515462,0.509177611527314,0.550681199635774,0.582750217612669
210,cane,12m,FC,0.587899597380223,0.577517500216284,0.503278365454105,0.520562897707958,0.575002550451322,0.506297800194916,0.351665078964972,0.504436630055296,0.327099040392363,0.517415396326036,0.512263201256808,0.569793928807903,0.550407200337708,0.609706731697997,0.566378329986429,0.509355750700094,0.507509166932339,0.548055009376453,0.57942095109399
220,cane,12m,FC,0.590085832306751,0.582479323688856,0.503872463442349,0.527519442063295,0.574159502013301,0.504405367230079,0.352087606065829,0.510145101690241,0.33300296150407,0.517676363498787,0.509244196989954,0.567724231497969,0.551656225435417,0.609996556227459,0.564209890927698,0.513699805661935,0.505265726090547,0.545144841264357,0.57572628515653
230,cane,12m,FC,0.591270620561199,0.588313019231846,0.505394341159879,0.532916547592515,0.572899481675392,0.503477444142123,0.352649394663675,0.517134256351762,0.339292495570533,0.519431827487673,0.505620549173171,0.565418316727748,0.554747599059689,0.609883628994408,0.56238794771142,0.517442639216768,0.502429997069885,0.541922364674825,0.571533762383415
240,cane,12m,FC,0.591570431601981,0.594328058637122,0.507512582189186,0.537235992408438,0.571406158992169,0.503510991400658,0.353868273360291,0.524647773957099,0.34622793474957,0.5231653175898,0.501471739953815,0.562916471419186,0.558271951822272,0.609782101106818,0.56006841804615,0.520821847277266,0.49865488824942,0.538562431222839,0.567694695399389
250,cane,12m,FC,0.591118437898413,0.600194228727295,0.510506645020226,0.540554959145218,0.569915099911503,0.503964023514093,0.35586304752926,0.531415752590359,0.351361354700663,0.527660765482849,0.497558981104591,0.559791821161703,0.561283400361558,0.609234707054924,0.55786385303272,0.52349589585164,0.494120524214892,0.535309430927101,0.563680954938433
260,cane,12m,FC,0.58991560152943,0.605562423459471,0.514858896607417,0.543025587059989,0.568157612372299,0.504117034978888,0.358387064862755,0.537269407244427,0.354942231062176,0.532733428688784,0.49403212264932,0.555971112572061,0.563281772790475,0.608071488681022,0.555530924895186,0.525821234526278,0.489322467803622,0.532809701677898,0.559190959177757
270,cane,12m,FC,0.588366992074428,0.610638433226407,0.520644253747658,0.544713757363235,0.565870528981649,0.503710835340985,0.360761296682989,0.542745856695257,0.357307258657488,0.538898701163819,0.490061504429114,0.551018150954079,0.564473559485815,0.606426652240894,0.552904559804035,0.527820486452826,0.485900855048941,0.531166256133055,0.554566211822431
280,cane,12m,FC,0.586490541082206,0.615279465071445,0.526936598709535,0.546066964352439,0.563732067568629,0.503158319567398,0.363376569951007,0.547107096919041,0.358718244477287,0.545754984658778,0.486274572322257,0.544971616973972,0.564820742650067,0.604306952024285,0.550535754677901,0.530789681698432,0.484012085091643,0.530204831154804,0.549796633221309
290,cane,12m,FC,0.583972281653994,0.619243564006975,0.5324576987798,0.547773207367755,0.562128028165666,0.502473475020282,0.366790788515403,0.550430268477992,0.358995086769356,0.551724352852231,0.482301512919769,0.538275377315898,0.564454198963074,0.601412475310377,0.548575668221219,0.535126156546769,0.482787351309616,0.529589134363866,0.545749161692934
300,cane,12m,FC,0.580862291247993,0.621986510568364,0.536175803481223,0.549491900679442,0.561002374025377,0.502262638478948,0.370739365670481,0.552899676776288,0.357652147753418,0.555901133759771,0.478888409358024,0.531286519245388,0.563339789936109,0.597853534850741,0.547093756059114,0.540569986133536,0.481954535120944,0.529553381646228,0.542869785100817
310,cane,12m,FC,0.577018374427488,0.623925286548618,0.53717546661854,0.551391927185166,0.560291684919158,0.502464912591302,0.37508289592275,0.554996981966242,0.355682174131929,0.558451542316936,0.476309243104143,0.524301678580285,0.561720669750011,0.593974894996045,0.546649287028338,0.547136549647161,0.482050347237582,0.530022757951344,0.54054425317752
320,cane,12m,FC,0.572447320078739,0.625792976112321,0.5356589672134,0.554389168222391,0.559894541066165,0.503555302038058,0.379956668123398,0.557608804125916,0.354057168248164,0.55978165829399,0.47449647597989,0.517535911418535,0.560261737693044,0.590375531005249,0.546744352038893,0.554696801663284,0.482755015535331,0.531066684247838,0.538685808084572
330,cane,12m,FC,0.567594304815015,0.627414984853908,0.532122254564876,0.557969272307953,0.560224157169959,0.505112591172878,0.386437196505472,0.560778331249432,0.352673502021578,0.560736331218919,0.473241890955612,0.510975649337958,0.559270964491669,0.587517040284197,0.547170838464666,0.56184885812126,0.483716276199105,0.532312078635902,0.537214275702155
340,cane,12m,FC,0.562249722999085,0.628350191053891,0.52799783620467,0.561726884140723,0.561202622680233,0.505983100591245,0.395410732848486,0.56413275117465,0.352688980819624,0.561606107663326,0.472196854987717,0.504905844580267,0.558727009505502,0.58522246693602,0.548058980605936,0.5677747780725,0.484378162896227,0.533669543299015,0.535365275259471
350,cane,12m,FC,0.556928251995035,0.628344660037598,0.525044964823581,0.565371121776178,0.563106001959678,0.50648280994964,0.407002496533291,0.567744150113584,0.353530296436241,0.562519373330041,0.470940023169964,0.499643030726814,0.558607614537365,0.5833009922558,0.549227530901747,0.572195135074828,0.485022082335116,0.535546184786637,0.532734975697963
360,cane,12m,FC,0.55176145931165,0.627759757739336,0.523930939285988,0.568878318522765,0.565400894063821,0.506278700751077,0.420831662140318,0.571235908737019,0.354268012458632,0.563355787005709,0.468977549840533,0.494894506191718,0.558916040742903,0.581667365870128,0.551304362895481,0.574969800669978,0.485953997082902,0.538392556527639,0.530436848641984
370,cane,12m,FC,0.548144341561708,0.626792723727322,0.523298339356267,0.571870980317243,0.568447557432149,0.505237732256994,0.435677865680408,0.574435782743711,0.353700595049535,0.564017747993107,0.466476551367615,0.4903057532629,0.559281509795712,0.579777550147033,0.554664864310025,0.576593180999718,0.486699052557311,0.542383042570533,0.527893116394022
380,cane,12m,FC,0.54592735595734,0.625735060541051,0.52292099113679,0.574726009516128,0.571862319224316,0.50478412059908,0.450234058797701,0.577719433163186,0.352463641796979,0.564615715003426,0.463481894885056,0.486239737958741,0.559354383109017,0.577599211920247,0.5591516340076,0.57710367760001,0.48676994932015,0.546928140346254,0.525159336212598
390,cane,12m,FC,0.544337101521925,0.624780061625007,0.524072294595357,0.577274559638886,0.575870344657378,0.50483929314732,0.464058364345689,0.581234019581933,0.351681267466597,0.565238793026247,0.459801109690935,0.482486880881544,0.559808140138246,0.575705900499555,0.563593908609264,0.576876765592538,0.486932831936753,0.55119306211383,0.522709857749985
400,cane,12m,FC,0.543532097486656,0.624165802499593,0.527028285269774,0.580340808293627,0.580100684281393,0.504788379720917,0.47626400511796,0.584983019352246,0.35465167306364,0.566239442889208,0.45567776905246,0.478685017383554,0.56106264933592,0.573652525561131,0.567345076420695,0.575209976311127,0.487702632910463,0.554596419243701,0.52108998051838
410,cane,12m,FC,0.543172139754378,0.62383380695141,0.530659216472316,0.583476861717725,0.584558926783174,0.505188374464071,0.48522261648364,0.588653099871128,0.362724962547408,0.56812769391302,0.450536563694749,0.47513528936768,0.563195410692882,0.571134464798158,0.569892096946549,0.572090751443857,0.489013220468339,0.556892665504362,0.519979762341705
420,cane,12m,FC,0.542972210275578,0.623659025127318,0.534864550924377,0.585225619184661,0.589264208348518,0.506225077815594,0.492396896587184,0.592218667584994,0.375057791250002,0.570220594237608,0.445355678511394,0.472183989390141,0.565823802090747,0.569063165313893,0.571196431396056,0.568311795961314,0.490598386688769,0.558223318620755,0.519299413024583
430,cane,12m,FC,0.543053216658377,0.6233420554823,0.539866054368359,0.586153556420297,0.593669994211151,0.508139154147741,0.498712777848977,0.595382333361333,0.390132762390322,0.572048024014825,0.440339948867143,0.469374757561845,0.567938869575733,0.568158426717402,0.571366619476287,0.562993720430055,0.492094372275644,0.558646855006158,0.518839496940462
440,cane,12m,FC,0.543671005866748,0.623053344690086,0.546419224790782,0.586576582985615,0.597148268474554,0.510726163679389,0.504206335708353,0.597986243676228,0.406732984278955,0.573661260438579,0.434944881101983,0.466503299343395,0.569158517109063,0.568284557729387,0.570392399873288,0.555923389306634,0.493734519448869,0.558138676949304,0.519049855007119
450,cane,12m,FC,0.544700672807517,0.622706841345327,0.553967222941351,0.586297876244002,0.599509534802853,0.513735241418508,0.508263811734982,0.599915696410329,0.424785277281317,0.57453476649148,0.430717904094033,0.463880493729314,0.569321088945537,0.568929497289217,0.568917048857057,0.547247541106667,0.496464393278618,0.557091347351218,0.520358712797975
460,cane,12m,FC,0.546602271254392,0.622868699413197,0.562087206282803,0.585267211451935,0.601350580735296,0.5165197938539,0.511326623875778,0.601073423458369,0.443988194330158,0.575269639208499,0.428339391389675,0.461077067624237,0.568681640319522,0.570153335715556,0.566924937892439,0.537928708427541,0.500228010925552,0.556063374758929,0.522523372209201
470,cane,12m,FC,0.548676759826708,0.623555533932561,0.569959795356648,0.583829229039668,0.602556079898959,0.51905965086462,0.513986421219118,0.601538213452345,0.464249096978786,0.575993338081957,0.427787024353024,0.458210217908692,0.567406519169375,0.57176393582225,0.564661233092445,0.528401517491777,0.504382427247363,0.554521529498549,0.525112649328235
480,cane,12m,FC,0.550051798393263,0.624539659133474,0.577897247191028,0.582173880214392,0.603032758048644,0.52128223790458,0.516672699123219,0.601495081226568,0.484017097258367,0.57657656005856,0.429115466367955,0.455571225225341,0.565080814059243,0.573377467893506,0.562277453279729,0.519073479901069,0.508460052949868,0.552575528222706,0.527598806553038
490,cane,12m,FC,0.551158029038653,0.625228376640723,0.585468269474189,0.579889166263739,0.602597224465227,0.523404353775562,0.520219250519658,0.601121881767932,0.502579608656496,0.577743924882817,0.43161448307466,0.453507105539002,0.561875674656261,0.575012588593716,0.560492209583314,0.510180874366857,0.512425098000998,0.550218376638006,0.529843332292629
500,cane,12m,FC,0.551929373874173,0.626731678270757,0.590746753745027,0.577909304862026,0.601119687165772,0.526124207177779,0.524416490844161,0.600491002564373,0.519032154605681,0.580201442114317,0.436209035466483,0.451966991794191,0.558302195874614,0.576558546431234,0.559947669100902,0.50184693817891,0.516627340755935,0.547607728185383,0.531475672031311
510,cane,12m,FC,0.552072028461582,0.627942734346703,0.594289023439767,0.576405620444875,0.598668933888132,0.529657618121721,0.528506742614153,0.599861613615319,0.533688790342138,0.584030458636016,0.443385967203643,0.451061206119341,0.55506540081298,0.577769120652611,0.560808063840869,0.493328433061899,0.521602899012744,0.544854537359764,0.533210548138587
520,cane,12m,FC,0.551606605688573,0.629274493182445,0.596743004669434,0.575669833421733,0.595252203472996,0.533412032731778,0.532136734631745,0.598798616833423,0.546442128318373,0.588966421450063,0.452624682385764,0.450870176632561,0.552529098039439,0.579002847607738,0.563200648038837,0.484695956094027,0.526571650056618,0.542755845654586,0.536104629968434
530,cane,12m,FC,0.550934439496622,0.631583708523553,0.596583678601581,0.575831688993466,0.590521792747704,0.53714479951152,0.535478016521786,0.597177391380016,0.557381432849836,0.5946308779317,0.463653123276478,0.45061686670748,0.551183215641483,0.580644302450188,0.566165224244628,0.475565111735516,0.530949573983944,0.541769307615479,0.53953198837321
540,cane,12m,FC,0.55076322993288,0.634821517225244,0.595112502701371,0.577032063261178,0.585270705050241,0.541519081612636,0.538865881291312,0.595265062597024,0.566346225158759,0.600575664424896,0.473869803276008,0.450011653369207,0.551719733666825,0.582516004713241,0.569105692598504,0.466521671321674,0.534522253539986,0.541514795512564,0.543167027223767
550,cane,12m,FC,0.550488985849843,0.638936825249925,0.593992791317125,0.578998188252926,0.579842492558381,0.54537533807864,0.541892981315349,0.592989807095706,0.573363051280792,0.606209337736094,0.481746867250757,0.449458503228558,0.553393642582328,0.584369419497959,0.571734831280705,0.459000826086127,0.536893018531376,0.541506627307536,0.545993504598684
560,cane,12m,FC,0.54941773951653,0.64355263016764,0.592535292158673,0.581640882134316,0.574185366593542,0.548793793284118,0.544357356112395,0.590195911804899,0.579306648761439,0.61144482922862,0.48677057127013,0.449410653624998,0.556111203892393,0.585889180297002,0.573570619995697,0.453978309757971,0.538346661021167,0.541186034726248,0.547732347339502
570,cane,12m,FC,0.547873727734367,0.648705721211525,0.589886625780099,0.584924400517092,0.568494619620977,0.552043819544816,0.546624541687646,0.586518093293273,0.583722702614011,0.616163701830204,0.490094112114563,0.450078696174209,0.559417527616516,0.5874613000431,0.574353294872839,0.452467755561192,0.5401968312519,0.540019864901828,0.548330384455828
580,cane,12m,FC,0.545627218504676,0.654710184058835,0.585034957220784,0.588462763499413,0.56170482661195,0.554778525706498,0.547621769529493,0.581673475642632,0.586449421584798,0.619864132851143,0.493169152427095,0.451744409520518,0.563503147575248,0.590001525042144,0.573852939453147,0.453316209919805,0.543953714721814,0.537418942790409,0.548237022032032
590,cane,12m,FC,0.542236474839406,0.661819832732492,0.578443923209462,0.592682130919362,0.553902345548278,0.557109738772548,0.54690414316479,0.576369266693463,0.588501296530655,0.622535324885882,0.495970031747581,0.45377157128081,0.567768167918979,0.593397274505932,0.572011334282798,0.455409146026635,0.549303791335016,0.533978674469925,0.547670745657748
600,cane,12m,FC,0.537484707501276,0.669132388826071,0.57067467980126,0.597157760445448,0.545737425003497,0.559490401399044,0.544575147742251,0.570836367732745,0.590262476175101,0.624984203130112,0.49854645149325,0.455672335833448,0.571670560647267,0.597271125538789,0.569212128301096,0.458335361965425,0.55472046622106,0.53051749140304,0.547508761177135
610,cane,12m,FC,0.53142966808041,0.676123434604733,0.562400379728561,0.60093412131141,0.537394877419431,0.562286426054648,0.540773309323074,0.564797721183965,0.591930435441759,0.62699140444764,0.501209022471171,0.458218434480539,0.57524451216217,0.601989034160981,0.566451261591731,0.460586065112555,0.559457538712907,0.526956366423975,0.548689519255239
620,cane,12m,FC,0.524721840234642,0.68285920348272,0.554760087973855,0.604073095852647,0.529082008611389,0.565653653773633,0.535854567957798,0.558615158954453,0.593374569937248,0.628999396831459,0.504311614115406,0.461538319299698,0.57889831241071,0.607375269035511,0.564242395697634,0.462223470055812,0.563000554966437,0.522882546996644,0.550269190853738
630,cane,12m,FC,0.518309049248505,0.689075868434188,0.547654410459225,0.607690438287807,0.521057746029539,0.569001033726266,0.530433856713137,0.55274235394426,0.594036101382666,0.630828597060513,0.508339913772742,0.465693938390706,0.581932590196797,0.613141077008558,0.562322392787515,0.463195115168355,0.566146462121126,0.519054370300801,0.551816692032673
640,cane,12m,FC,0.512601900603259,0.694492652768136,0.540810141143302,0.611152246835487,0.513736294710922,0.571314107035197,0.525162812973025,0.547685405295544,0.594253748807303,0.632505813779169,0.512022580500548,0.4705240138626,0.584012198302682,0.619364986392864,0.560802947015536,0.46489101955529,0.568637330845997,0.515709520618639,0.553025935497921
650,cane,12m,FC,0.507521326041416,0.699255965079223,0.534802940435681,0.614222121062111,0.507345946050034,0.571865977282326,0.520750051054123,0.54320346528588,0.594356846373542,0.634074325114202,0.514947380321663,0.475788295027413,0.585472703955896,0.625980043572378,0.559530800490904,0.466453330776849,0.569961747995788,0.512564861286221,0.553873607717039
660,cane,12m,FC,0.503325114207205,0.702520888169824,0.530055323849003,0.616743079492133,0.502694376989353,0.571787672845085,0.5186655580434,0.539070752134915,0.595076614646669,0.635113405885757,0.51756976299016,0.481046430063681,0.586783446480704,0.632773356792144,0.558321204021292,0.468618759376197,0.570365064990298,0.510727305574416,0.5553607501501
670,cane,12m,FC,0.500280085173065,0.70418011710888,0.527074133736747,0.618376202316244,0.500112915301352,0.571462148817952,0.519412491812125,0.535328332109799,0.598231027248095,0.635816424122962,0.519396436733213,0.486234098946603,0.588117501797709,0.639655158304305,0.557754746166925,0.471219943894219,0.570684460150846,0.510270290034343,0.558362808872593
680,cane,12m,FC,0.498487351804084,0.703984446616904,0.524763551229422,0.619133450676724,0.498348974951559,0.570033147575901,0.521959322015703,0.531723392240401,0.602270002411424,0.636493799738227,0.520552221256058,0.491103275923477,0.589311171043109,0.646133931234896,0.55890135373651,0.475662508375448,0.570932063299808,0.510425730734296,0.562541638148398
690,cane,12m,FC,0.497361057248577,0.702586615128032,0.522783869017327,0.619584469467636,0.497208248747291,0.567780749337668,0.52526783459778,0.528766245802505,0.606345125361089,0.63720906762677,0.520280556223229,0.495806504352806,0.590289918968032,0.652192495218556,0.561910283731258,0.480348236414551,0.570632847961038,0.511461036379697,0.567351282111387
700,cane,12m,FC,0.496281024290088,0.700176406211791,0.522121458307625,0.619729513166877,0.497225600462834,0.564851029907415,0.527981883875915,0.526721486872559,0.610654708040593,0.638050659035448,0.518649728935398,0.499858706411915,0.591194328353824,0.657850800461005,0.566442731361821,0.485331686523689,0.569696080145955,0.513905095334131,0.572118285072772
710,cane,12m,FC,0.495224721084552,0.696644892239129,0.523445378577467,0.619477499923314,0.498095299513049,0.561898259422238,0.529996893265788,0.525465306835401,0.61486233930637,0.638302882027873,0.515625426682454,0.503329416196431,0.592011742363612,0.663215000765051,0.572399669807271,0.491192552735661,0.568367277967668,0.517370937310495,0.576502037782351
720,cane,12m,FC,0.493844562518586,0.691907078209358,0.526005522721845,0.618667255556886,0.499667942732449,0.560070865713113,0.53134541048136,0.524872617242621,0.618736181064094,0.637565634363712,0.512336979874166,0.50598068350372,0.592047984229418,0.668196014242723,0.579861256971644,0.49797655912472,0.567249952028259,0.521852671700127,0.580397078530696
730,cane,12m,FC,0.492519877034377,0.68606600773531,0.528731030619995,0.617719522810993,0.502064839444143,0.558949251573215,0.531882824014658,0.524186531216342,0.622501410306143,0.636361796600613,0.50870319734281,0.507443712178769,0.59133829618293,0.672389686368263,0.589053551849844,0.50563907482033,0.567043942222082,0.527147883179104,0.583462818955668
740,cane,12m,FC,0.491266170199138,0.678338146944368,0.530853363359999,0.614830176477119,0.505412506835338,0.559027590577405,0.531825933008837,0.522914426047369,0.624968490280586,0.634718350426687,0.504877362552821,0.507698263673068,0.589889877335898,0.675815524189542,0.59860376184214,0.514031173235726,0.567705860769083,0.5325017473928,0.584993063631646
750,cane,12m,FC,0.490213136368446,0.668806406390651,0.532593630078257,0.61003047588294,0.509598148168385,0.559554192849116,0.531780298597934,0.521099216229251,0.627001710227355,0.632928721668429,0.501549505571047,0.506804377725493,0.587293781038161,0.678563846376749,0.60845229549605,0.522909993527673,0.568932930098922,0.537294757141722,0.585128132330847
760,cane,12m,FC,0.489581226486728,0.65827198007215,0.533491242219728,0.603213796612118,0.514064243736765,0.559749786427467,0.531932892216071,0.51893961523567,0.629247823565222,0.631268691644531,0.499206409632416,0.505370625255887,0.583662756070091,0.680861911511622,0.618311909815556,0.532111315709621,0.570277319247554,0.541735412201382,0.584323876708228
770,cane,12m,FC,0.489820224946515,0.647290434301735,0.534671128645317,0.595869189059557,0.519035527588294,0.559614475033729,0.532815420254646,0.516558615923454,0.631517504981093,0.630136506567326,0.498034115309665,0.503862048833674,0.579251527140701,0.682643064100832,0.628129682084003,0.541113772761437,0.572025125602947,0.545840330307846,0.58296068702733
780,cane,12m,FC,0.490290070133872,0.636502491665434,0.536674556537553,0.588428419316129,0.524285206211627,0.559196187154202,0.533911899008542,0.514165206105211,0.634470735078172,0.629738062120567,0.497766472224777,0.502499680670213,0.574526610638663,0.683771390598082,0.637671122173097,0.549331930569683,0.573378236932366,0.549901614608202,0.581770142961763
790,cane,12m,FC,0.49154502981784,0.626287067236314,0.539189027764718,0.580929097618673,0.529766188332453,0.558751643676282,0.53434560222996,0.511860509834054,0.638245620185373,0.63054640523717,0.498800519556767,0.501557105095096,0.570006384114076,0.684177195163437,0.646860209432875,0.555763993042512,0.574341553112275,0.554401979931445,0.580651051480696
800,cane,12m,FC,0.492596978974317,0.616685487460236,0.54191171340841,0.573941389835152,0.535985407128008,0.558728857777417,0.53478886173369,0.509959481731816,0.642845794548869,0.631370468224671,0.500724529199636,0.501718630819098,0.565939485253859,0.683846651891652,0.655381412162379,0.562086766273864,0.575032467594796,0.55908043491693,0.579668801095241
810,cane,12m,FC,0.493987537828193,0.608206421087831,0.544643520339647,0.568240125368566,0.543192413906839,0.559054712678288,0.534356360569673,0.507542564964388,0.64834459356267,0.632337282823694,0.503770541879627,0.503478641271058,0.561404093069996,0.682555617504725,0.663098272968652,0.567872004308344,0.574871239357243,0.563457867334499,0.579088978023656
820,cane,12m,FC,0.49536479590079,0.600613775053863,0.546906119596264,0.563812202990642,0.551003802533638,0.559333725970766,0.533001776423618,0.505249536528662,0.655092947436802,0.633502591155769,0.507691561870366,0.507113850801347,0.556491504696574,0.680473490059673,0.670023162887153,0.572770408594808,0.573912170403287,0.567357083683169,0.579030450408724
830,cane,12m,FC,0.496953904110669,0.593720514774835,0.549429342830297,0.56051867501571,0.559313477640377,0.560435381304898,0.531671149451163,0.50346800699807,0.661732529184988,0.634622806249701,0.512379487126234,0.512196113772751,0.551465165051326,0.67800128168665,0.675882928801627,0.578052081808365,0.572144979743701,0.570916246962539,0.579080529700734
840,cane,12m,FC,0.498718098814104,0.58670267573081,0.551676916392092,0.558015699250463,0.568099176052068,0.561761767484613,0.530915425816117,0.50189821023164,0.666685513998841,0.635290759683612,0.517917256961485,0.518894490157988,0.546581690224933,0.675037411605299,0.681136446328776,0.583874914062328,0.569420113492249,0.573820230201203,0.579511493877946
850,cane,12m,FC,0.500518261147581,0.579826925391703,0.554188248412973,0.556319553882592,0.577020978487692,0.563921128478977,0.531181509282469,0.500176691402437,0.669202181957849,0.634431927039433,0.523996111321839,0.52691295955147,0.541950165022525,0.672060609232388,0.685216087821796,0.589714900323524,0.566926474247791,0.576282564385827,0.579915029056894
860,cane,12m,FC,0.501880756086063,0.57324068121643,0.556747949493514,0.555090540498859,0.585518494640221,0.567056538857925,0.531641351868152,0.498554444112584,0.670568988443442,0.632626407261663,0.529444080935599,0.535314237042843,0.537767438497451,0.668849244904554,0.688122986260963,0.5948982245963,0.56517130799072,0.577922297860497,0.580439790806128
870,cane,12m,FC,0.503046568675826,0.566778648157217,0.559539911040914,0.553992059526407,0.593069008295117,0.571141250664617,0.533885125606454,0.497087881092302,0.670939163683052,0.630027653867944,0.534699813832472,0.543291890156206,0.534373120791715,0.665334089990108,0.690374590019483,0.599058042104445,0.563793150527646,0.579030072677632,0.581482426334457
880,cane,12m,FC,0.503826678201315,0.560503443694031,0.562237225941519,0.553521858601205,0.599968318795225,0.575660378824599,0.537123168868785,0.495546874413921,0.670557195090582,0.626549316936141,0.539368866902729,0.550487195875935,0.531871174169086,0.661282257666434,0.692408165078624,0.602117604504956,0.562558438336408,0.580055461278783,0.581461370613986
890,cane,12m,FC,0.504525218526526,0.554268973117614,0.564703028429599,0.553415323446862,0.606576819993372,0.579373730484413,0.539990669874069,0.494558345314697,0.669525593564519,0.622114954334823,0.542802404270541,0.556353397013424,0.52976569577944,0.657012044769696,0.694429858745019,0.603719610266779,0.560705361942762,0.580837140178191,0.580062771923985
900,cane,12m,FC,0.505263439764204,0.548596453527437,0.567592187511305,0.553281668663959,0.612966564845423,0.581741155963725,0.542735890113799,0.494189055236996,0.667891246095114,0.617093676048109,0.544390181440686,0.560583918306345,0.528333756652211,0.6525255803565,0.696322006268825,0.604250804711289,0.557827969316804,0.581515312053163,0.577662968264414
910,cane,12m,FC,0.506034455158016,0.543898667226658,0.570890729055986,0.552213482538095,0.619280022726632,0.582780084988629,0.544485597415307,0.494211654583761,0.666307620597302,0.611550488429273,0.543653053514222,0.563319803440836,0.527701509355693,0.647631685125894,0.698135121977306,0.604290746030836,0.554024799364659,0.582317301350421,0.573996469643245
920,cane,12m,FC,0.507496945685533,0.540835894113745,0.573371483107672,0.550238601672403,0.625428819743945,0.582233702826073,0.544164034951196,0.495494372111995,0.66487201279824,0.605653655119837,0.539413970140459,0.565231459933439,0.527990469433868,0.642658335033967,0.700182565145409,0.604329876023534,0.549824523670163,0.583390256809536,0.56954465257968
930,cane,12m,FC,0.509070490830657,0.539344354419037,0.57507012818805,0.548053393059303,0.631213499889492,0.57965911727559,0.541064939101595,0.497894366299845,0.66434136840062,0.59976426391383,0.532270342756624,0.566629962827898,0.529303197670086,0.637888062998307,0.702451037994933,0.604006407987792,0.545646989742656,0.584553807165212,0.564983682023723
940,cane,12m,FC,0.510250515281069,0.539350146252712,0.577292023960493,0.546151827504086,0.636125604758645,0.57573582476792,0.535391668231522,0.500313587451048,0.665075477415585,0.594389180502541,0.523514399240335,0.56763734017597,0.531904166580303,0.633625780675546,0.70463867384168,0.604680130496066,0.54145301181869,0.585465697544981,0.56133826923373
950,cane,12m,FC,0.511040196205827,0.540440302249632,0.580054236581363,0.544737720731432,0.63957226948186,0.570550209712485,0.528483973347527,0.502563006423176,0.6669948700594,0.589612853853837,0.514030355258409,0.56795181177349,0.536007177874941,0.629886696228667,0.70641538525118,0.605028157267998,0.538427196103834,0.585463161476459,0.55936584002585
960,cane,12m,FC,0.511711630411908,0.541967955765236,0.582472911698348,0.543532419025448,0.641649381658993,0.564593524895687,0.521697528350022,0.505239176925813,0.670314713565783,0.585484190261647,0.505179923981902,0.567919982984007,0.541422763078685,0.626821236229925,0.707689766248507,0.60456804632104,0.536562258733907,0.58459565631915,0.559155246501304
970,cane,12m,FC,0.512628874289996,0.543054438034436,0.584294728487436,0.542325432553353,0.642790924689827,0.558524064983109,0.51619366198875,0.508265365086598,0.674949233287395,0.581907077342774,0.499276821375584,0.567766139301537,0.548123589343857,0.624584050804364,0.70846279771489,0.602792495616133,0.535294825389916,0.583048585549128,0.560267579868214
980,cane,12m,FC,0.514074180582875,0.544314543167136,0.585246453390612,0.541412381229406,0.642964434151718,0.552807096868142,0.512804743583244,0.511245943214518,0.680956925135619,0.579268270050166,0.495906497763672,0.567837706248655,0.555915445277164,0.623216544898175,0.708840159814698,0.600003001743576,0.53447357204133,0.580876905469127,0.562953239584544
990,cane,12m,FC,0.515063220537763,0.545626338046863,0.584847551934352,0.540748368134548,0.642069329758303,0.54734661752136,0.51038869722701,0.513574327860309,0.688599331308557,0.578128090204588,0.495942106818809,0.567806558692162,0.563870999918111,0.622401549761415,0.708684338420571,0.596348950634051,0.534511319779014,0.578057511737499,0.567323366156882
-1000,grasp,12m,FC,0.457666849272315,0.566953929812117,0.435540733164782,0.546388803861187,0.567894416917359,0.504688375591011,0.560615898065822,0.502952782989796,0.523776508014718,0.601859416466315,0.470276449977385,0.516269510138738,0.556174954020831,0.577636167387492,0.602845944420593,0.49139161562476,0.48738684656989,0.507184620258115,0.486436936525506
-990,grasp,12m,FC,0.462170406758763,0.559484807850302,0.431948050387842,0.54406109309331,0.566516896665729,0.501830096971266,0.562766897278992,0.500436471418184,0.523751737004286,0.601341086043395,0.475146189789721,0.513857352219576,0.56208532735601,0.576962581877358,0.599798696657892,0.489795964389465,0.484267644151278,0.503634392155732,0.480004400529816
-980,grasp,12m,FC,0.467479355825073,0.552754489037607,0.429463664283517,0.540877338196334,0.564481061785122,0.498997835723158,0.563382190898435,0.497548951751261,0.523767207562956,0.600110613233213,0.480874001044774,0.509869961132574,0.568014540231599,0.576470380206211,0.597340188908782,0.485858984859663,0.481603243240432,0.499941210022028,0.47418547615168
-970,grasp,12m,FC,0.472975686905064,0.547432861594591,0.4277780435513,0.53673024578632,0.561971981092098,0.497024271162954,0.562427412603102,0.494076337566067,0.523752418727568,0.59798469491602,0.487408785636163,0.505079099921615,0.5735547896036,0.575839852523872,0.595612501473001,0.480356093885773,0.480426757689969,0.496332617913213,0.468828661505664
-960,grasp,12m,FC,0.478557526831002,0.54356367376592,0.426728338972088,0.532300268172113,0.559511258414101,0.496677422314377,0.559849302279103,0.490695181907615,0.523589087091844,0.594571144651185,0.494882144872094,0.500065434540375,0.578259707230587,0.574913199802419,0.594888719642669,0.474800194732306,0.480512288910128,0.492717707339072,0.464657149345479
-950,grasp,12m,FC,0.484459584085827,0.541063234853255,0.426322995461912,0.52778888265318,0.55787922839393,0.498020141534943,0.556086560908557,0.487820131616126,0.52336777909944,0.589976448242639,0.502831071116535,0.494840785771489,0.581234686023337,0.574456515962988,0.595261236584786,0.469564953329178,0.480415269792897,0.488726377213728,0.461981489578262
-940,grasp,12m,FC,0.490434037046071,0.539517383498859,0.426997533582162,0.523652700638962,0.557080645702974,0.501023723152183,0.551531528341955,0.485729303069028,0.523442973283618,0.584540253774744,0.510559641300916,0.489110112567255,0.583049367392551,0.574260058204309,0.59636125146882,0.465046573158035,0.480713589772746,0.483974515147234,0.462492799238124
-930,grasp,12m,FC,0.496329383479766,0.539014272007305,0.428768724698184,0.520065117248976,0.556858120296698,0.504670374908683,0.54667227300601,0.483949915612765,0.523615422931353,0.578612141457513,0.518280844281504,0.483277129592024,0.583581313738948,0.574156671361983,0.598107311168423,0.461705139430191,0.481430859831519,0.479054828015826,0.466552251292485
-920,grasp,12m,FC,0.501990617166154,0.539793393738354,0.430609548280168,0.517453231803217,0.55698428112835,0.508235381319671,0.541999841914741,0.481916578181807,0.524142618571575,0.573407756225378,0.525875892513366,0.477394946706423,0.583341112174395,0.574113682155058,0.600060561345124,0.458651217189024,0.48232958025247,0.474176305079854,0.473908952607287
-910,grasp,12m,FC,0.507025072927007,0.54136684602477,0.432499654165337,0.515682058957506,0.557164112819395,0.511521488656836,0.537775181791393,0.479876709465262,0.526302714999104,0.568375974743605,0.53234781593111,0.47104244082867,0.582859258469799,0.574088019134957,0.601798470901746,0.457599596699913,0.483346864242568,0.469530260172244,0.483757874200943
-900,grasp,12m,FC,0.51203323029364,0.543672732301088,0.434519566459136,0.514668575339199,0.557269183760031,0.514344074794171,0.534083135326643,0.478336457103094,0.530020008102349,0.563730870331179,0.537675741690238,0.464155153080637,0.581935410909942,0.5740476411261,0.603507705685886,0.458356904598071,0.484178691171958,0.465167520314786,0.494952712361215
-890,grasp,12m,FC,0.517409049427121,0.546312590502838,0.436821612950644,0.513900165281501,0.557267973485692,0.516848915231946,0.531132316603186,0.477540408605216,0.53432894097766,0.559952264508139,0.542220588892922,0.457433217390283,0.580714615284878,0.574215134315765,0.604825016800379,0.461595227717265,0.485212656745502,0.461451773027244,0.506090828861418
-880,grasp,12m,FC,0.523331917594602,0.549073436676921,0.44045729882722,0.51333589378086,0.557196122852495,0.519160620278149,0.528951099346889,0.477403149430175,0.538940719110576,0.556995007414717,0.547279145914373,0.451273123154698,0.579291562016318,0.574604442969088,0.605181848528874,0.466516720713944,0.487710826816128,0.459160701921424,0.515610435851427
-870,grasp,12m,FC,0.52991667458303,0.551894967315257,0.445491205978785,0.513124457814148,0.557158145706341,0.521472683837524,0.527520263934388,0.47757590550118,0.543845143046373,0.554990144834536,0.552210232131486,0.445665085452451,0.577066073859863,0.575540954281453,0.604940160581403,0.473188463478614,0.492099254932596,0.458958998800572,0.523577362304283
-860,grasp,12m,FC,0.536981324574736,0.554404624233869,0.451749707730982,0.513395635459243,0.556868347833829,0.524338438261527,0.526429358497097,0.47778929326227,0.548924790537179,0.553359968287133,0.556650818263482,0.441002359256823,0.57382486274137,0.576832381402274,0.604531837020373,0.481451454558698,0.496999288725072,0.460878918432203,0.529879118978376
-850,grasp,12m,FC,0.543982487270423,0.557068683465424,0.459054773849939,0.514447060602985,0.556545600294838,0.527930761380506,0.525355055337665,0.478081873165083,0.553945599234904,0.551357676889859,0.560186619654686,0.43732822676258,0.57046666557049,0.57801197641537,0.604008338169912,0.490273621474315,0.501868188092143,0.46433892268325,0.533949614491567
-840,grasp,12m,FC,0.55065253151285,0.559537504480468,0.466173112357313,0.516589717330041,0.556261736594195,0.530938350839416,0.523939229661376,0.478860605211703,0.558710114575913,0.549140017459682,0.562129178165897,0.434493194489888,0.567632225984684,0.578754918032607,0.604010169388583,0.498316441767585,0.505631250652141,0.468482075668232,0.536644097139481
-830,grasp,12m,FC,0.556445787639404,0.561375325387974,0.473922065812524,0.519403118362076,0.555866056619142,0.533618750229133,0.52269309284502,0.48064018982451,0.562818379060217,0.546667779942437,0.562610410460836,0.432286876557403,0.565421036890033,0.578584811471529,0.604705704296304,0.505276084212538,0.508977749558271,0.473495020602403,0.539210540592032
-820,grasp,12m,FC,0.560763744644544,0.562111046297727,0.482062790160542,0.521981665717146,0.555079345174228,0.535789008187795,0.521435986153747,0.483258585903726,0.565750541786466,0.544326592943372,0.561956104351007,0.430080904678997,0.563956954026213,0.578049911000911,0.606131261249651,0.511344332954776,0.511876124694094,0.479275993919051,0.541625863029892
-810,grasp,12m,FC,0.563682792415568,0.562303422458959,0.49020333310491,0.524002494421195,0.553606253330532,0.536925329845252,0.520520628894334,0.486100995261644,0.567830061266384,0.541530121432266,0.560868198023085,0.427887220095026,0.562661361910414,0.577530077214027,0.607681092371875,0.51630019361221,0.51411174303747,0.484954220153164,0.54417191569263
-800,grasp,12m,FC,0.565324627168899,0.561322711280372,0.49783620742764,0.526182349489108,0.551719007447298,0.537227853185144,0.51970118490088,0.489205678816961,0.568962867535513,0.537670188821978,0.559362215331275,0.426683341649893,0.56135667754082,0.577381374863972,0.609004584879241,0.519824424422988,0.516201856676077,0.490408459963526,0.547336022957424
-790,grasp,12m,FC,0.566499336946563,0.559860054109071,0.504528016862388,0.527856167281874,0.549693413009314,0.537027097205429,0.518882567467282,0.492418132918712,0.569875674978468,0.53290631000642,0.557853675481502,0.426761156133233,0.560275227112442,0.577777458805938,0.61056157071044,0.522254825903881,0.51784959993262,0.495645695793836,0.550781811742836
-780,grasp,12m,FC,0.567534669991107,0.557681579750335,0.509871680565257,0.529527314280253,0.547967505068852,0.536059931419748,0.51721033448681,0.495459721962137,0.570947365942699,0.52847601794041,0.556302790535248,0.427670381379108,0.558641679747357,0.578472131033422,0.612000485754892,0.524820044985043,0.518683635268826,0.500938136248166,0.553632708774118
-770,grasp,12m,FC,0.568067495706383,0.555896381684031,0.513550570518177,0.531656841727338,0.546269388002337,0.534813353368362,0.515179325392979,0.49755163480934,0.571787837286924,0.525359171977811,0.554802531390389,0.429344880621211,0.556557658560577,0.579280523052104,0.613170308331314,0.527460381991964,0.519091900347291,0.506800138922357,0.555471029770266
-760,grasp,12m,FC,0.56783599836169,0.553813600044382,0.516129887959868,0.53368617672797,0.544482808774339,0.533756660251991,0.513105950690589,0.499285919083252,0.572714217015477,0.523704948946565,0.552519185305423,0.431603556832397,0.55413673717099,0.580354925634092,0.61434424799886,0.530496646505015,0.518817465591371,0.513050524045241,0.556145854800293
-750,grasp,12m,FC,0.56740919453837,0.551347689460762,0.517805447890793,0.535380663594406,0.542047327941885,0.532701645863908,0.511186464076724,0.500233351941743,0.573786976809483,0.522836981659902,0.550115599780207,0.434454886938863,0.551298226205772,0.581111684045087,0.615115498790426,0.533734805198085,0.5187683607879,0.519580074559822,0.555848552501589
-740,grasp,12m,FC,0.567213515499321,0.548714549470313,0.518708640533584,0.536152513602696,0.53913110657846,0.530807995299165,0.509583532295305,0.500746830210984,0.575259052350141,0.522165526625213,0.547696449745769,0.437348024360557,0.548160066578284,0.58139080632232,0.615539759380163,0.537918402243928,0.519161933159854,0.52636740079624,0.55544572588575
-730,grasp,12m,FC,0.56739126281846,0.546098597959774,0.519278106753439,0.535488686924346,0.535532110400935,0.528757655931143,0.508305757119837,0.501060496552336,0.577707151793677,0.521251544584193,0.544990136784839,0.440244244496409,0.544703275116925,0.58121870978964,0.615404859736632,0.541926512342182,0.519518209050921,0.533591800590306,0.555400171433543
-720,grasp,12m,FC,0.567463817940956,0.54337335191605,0.52006178689988,0.533525880740467,0.532482479519266,0.527081191335915,0.507385146591192,0.501117278252942,0.581347518027783,0.520295635149169,0.541851509384734,0.442973842514705,0.540857809484044,0.580806628270316,0.61519134971573,0.545578703317704,0.519572973478703,0.540732879257099,0.555883339378772
-710,grasp,12m,FC,0.56706680014984,0.540272991945118,0.521318344323131,0.531251879711803,0.530671452874205,0.525778741318512,0.507576221885981,0.501347118201947,0.586223193544596,0.519568593434654,0.538504091719797,0.445427780310608,0.536251530263962,0.580358568984242,0.614850722805394,0.547359892537433,0.519433976176604,0.54721394035739,0.55664683902883
-700,grasp,12m,FC,0.565969471886388,0.536631393086927,0.524186989158691,0.52879098280248,0.530317542015417,0.524937295684712,0.509339039887918,0.501701077636057,0.5913955363914,0.519202980420241,0.534933932801349,0.44796744551888,0.530742850746149,0.579990586089976,0.614620479481291,0.546854481007408,0.519319668650638,0.552704681571266,0.557629824438734
-690,grasp,12m,FC,0.564234177613272,0.532534226320292,0.528635855957977,0.526250552936317,0.531625406025608,0.525137858887928,0.512706867063129,0.502344281151029,0.596782825733077,0.519303492021893,0.531096008323274,0.45119724091542,0.524308132148993,0.579882699835227,0.614910705523193,0.544436605379004,0.518724441948455,0.556607284739119,0.558990275620164
-680,grasp,12m,FC,0.561629683258713,0.528681555150416,0.534526095594287,0.523663852816448,0.534087641425978,0.525431653763929,0.516808781012999,0.503644131275614,0.602157301576937,0.520113522898742,0.526861425808977,0.454441841495806,0.518372813519345,0.58013576467543,0.615667610711426,0.541442535145271,0.517955812452125,0.558988371434568,0.560772616764221
-670,grasp,12m,FC,0.558440968266807,0.525360037886615,0.54002003885853,0.520755040239292,0.537703990053958,0.525074026194856,0.520815212979376,0.506078735459279,0.607688081575281,0.521671331975474,0.52224187936155,0.457845117517528,0.513662310932634,0.580682411771842,0.61616946993296,0.537847018903912,0.51664194017952,0.560167941578419,0.56313385222611
-660,grasp,12m,FC,0.554875704163403,0.522442928982373,0.544426956772809,0.517380419318298,0.54257164839061,0.523854054727318,0.525177262721236,0.50898718225253,0.613447303512304,0.524317259507068,0.516856613508085,0.46172251103379,0.509782751730539,0.581282572869023,0.616253011459851,0.53442346902512,0.514595447133748,0.560290406469463,0.566043505956119
-650,grasp,12m,FC,0.551290032537791,0.519866592652768,0.549207053726567,0.512944086135486,0.547868886050186,0.521592900004245,0.528921569749771,0.512158218662669,0.619535512869012,0.526993379762291,0.511295978377811,0.466137061150725,0.506454170142375,0.581653080144366,0.615695372179395,0.531979079055759,0.512069738573003,0.559479379065594,0.56860809348955
-640,grasp,12m,FC,0.547285434066559,0.518271701661075,0.553562073469172,0.507372083147145,0.552976264751947,0.518317504603454,0.532813727617368,0.514556090899883,0.625356578886527,0.52872270957926,0.505996113233899,0.471264223561001,0.503805652736154,0.581659771504568,0.614026896670556,0.529808377593826,0.509103053412738,0.557775498893036,0.571011039209827
-630,grasp,12m,FC,0.542735980817939,0.51758738532694,0.55773971069582,0.501302708180302,0.557643502198081,0.514818029077729,0.537443936588374,0.516141664041985,0.631034348529611,0.530005973722305,0.501270734766136,0.476752746487093,0.501597179265964,0.581197785022966,0.611626281828315,0.527832419000937,0.50422742687265,0.554684936148866,0.572917611649503
-620,grasp,12m,FC,0.538668440692935,0.518385175844282,0.561375689324989,0.494629610119091,0.561364595080769,0.510319099394218,0.543011243814428,0.517080781311961,0.636503020751303,0.530552606021968,0.495916913058017,0.482733525878239,0.500041165800418,0.580452092950604,0.608626959186551,0.52659153548288,0.497502780641612,0.54984580813774,0.574060706924329
-610,grasp,12m,FC,0.53552528317562,0.520854837897993,0.564497186432137,0.487153842918557,0.563712668011785,0.506273068096212,0.548309100816411,0.51799558699266,0.641983225200868,0.530666006601257,0.489771012663025,0.48883615672834,0.498668760636651,0.579461961980591,0.605648822445553,0.526696167769095,0.489068385028053,0.543389234188944,0.57456966217933
-600,grasp,12m,FC,0.533244942993908,0.523673937134729,0.567357536304487,0.478848713825605,0.564604147983877,0.502332817388141,0.554438154318654,0.519148540902417,0.647640746344706,0.530420179834157,0.483442002599961,0.494787361131778,0.497203233189168,0.578488542830925,0.602866724627104,0.527549963810987,0.479416061140329,0.53589391180628,0.574552221100214
-590,grasp,12m,FC,0.531223805659501,0.52658572934758,0.569832090063404,0.469825094900794,0.564102869257414,0.498786470873308,0.560489430321801,0.520661384140031,0.653465615012747,0.530180448116488,0.478269252897882,0.500444921489889,0.495288966509585,0.577776803779306,0.600382601328538,0.529281060985822,0.469081184334966,0.527979114626777,0.573835501460108
-580,grasp,12m,FC,0.529814469253917,0.529042263313649,0.571417697244132,0.46031431812959,0.562557179965515,0.495904580936467,0.5653531184099,0.522489308265305,0.659015701513275,0.530229978886078,0.474868182623449,0.505834117715648,0.493049785373445,0.577921337535708,0.598172574712956,0.532091202462445,0.458553718466167,0.520249005493593,0.572683244931816
-570,grasp,12m,FC,0.529049890646748,0.530978272141989,0.571834834679056,0.452539954236546,0.560102160778633,0.493691654467449,0.568700037580421,0.524612109204515,0.663666097617709,0.530089960711054,0.472208215503584,0.510553915292223,0.49037191310193,0.579087155410995,0.596386874125323,0.536889376997406,0.448261197053693,0.512926602205486,0.570744201655956
-560,grasp,12m,FC,0.528726271176886,0.532868449667492,0.571579805436687,0.447400822983516,0.556743961901029,0.491964313567895,0.570393829594158,0.527670663094062,0.667321911696946,0.529919396873337,0.470458502547918,0.514484895455703,0.487127183696562,0.581149798340414,0.595020775045796,0.544042651383373,0.439148824129596,0.506011488759447,0.568291186379184
-550,grasp,12m,FC,0.528660856596527,0.534622361916702,0.571246241895795,0.444462799812118,0.552899020525434,0.490855020045677,0.57013412491603,0.531588483472697,0.670018621590137,0.529905882030782,0.468881874463566,0.51791892608819,0.482915842388051,0.583680042535365,0.593932137549949,0.552985499567454,0.432210589632665,0.499622955948073,0.565841562432892
-540,grasp,12m,FC,0.528667797710958,0.535244314441673,0.571121923380648,0.443899388933302,0.548942001969746,0.490660441490229,0.567194901456865,0.5358444628987,0.672607138964641,0.530600737760034,0.467560036217599,0.52083080237538,0.477931467833987,0.58648127081833,0.593082872779686,0.56251339225812,0.426906620459997,0.494145805847315,0.564382981880788
-530,grasp,12m,FC,0.528533466418181,0.535091522870084,0.570988135785548,0.446611325959104,0.544809026162761,0.491232851159043,0.561716040725781,0.539916762898418,0.674559064578406,0.532390291026611,0.466946620541524,0.522639764929818,0.472961715839742,0.589955817247291,0.592782714367221,0.572121358870862,0.422781195252953,0.489455893695552,0.564081834237586
-520,grasp,12m,FC,0.52786214005224,0.534751992067909,0.570771500550383,0.452385686158352,0.540329233788795,0.492241767003695,0.554904584268039,0.543470367841198,0.67569511262425,0.534958253326074,0.467034426038822,0.523365860259937,0.469390271927988,0.593399974174687,0.592893737644219,0.580955748183718,0.419191665208702,0.486211374112677,0.564261297439653
-510,grasp,12m,FC,0.52628647041374,0.535061037442133,0.570413347427628,0.461021425777977,0.535440069809612,0.492899793617421,0.546688124471751,0.54706418399508,0.675718168239681,0.538590341479823,0.468217244933432,0.523233403289621,0.467111111864895,0.596406175868091,0.593474554792117,0.588392117332308,0.416366423132156,0.484226368757463,0.564622502143682
-500,grasp,12m,FC,0.524297716486682,0.536159170508086,0.569632106890615,0.472098728150828,0.530263898500024,0.492365443970649,0.537555882832033,0.550496414694142,0.674731573457164,0.543398139358043,0.470777459209116,0.522091929682231,0.465647124730564,0.598884047040574,0.59453072594759,0.593535184285643,0.413303774525152,0.483004957023563,0.565122522830489
-490,grasp,12m,FC,0.522612633404735,0.538192303659358,0.56953401613554,0.483739891175541,0.52519026319397,0.490449425594338,0.528412742896785,0.55352238327774,0.672763772271509,0.548049934006318,0.475417481421983,0.520157393323379,0.465266063073669,0.60067159591986,0.59557978715366,0.596094683304471,0.410065028492016,0.48149498380887,0.565511273632702
-480,grasp,12m,FC,0.521631405558521,0.541004748464589,0.570384054676676,0.49545883480708,0.520378690141633,0.487692380549447,0.519681711243013,0.55537798237828,0.669937609773671,0.552248829916934,0.48208636812527,0.517851972204445,0.46477876071102,0.601769035790718,0.59598835616642,0.597246946670551,0.406532369355768,0.479082635182475,0.565962302139809
-470,grasp,12m,FC,0.520798764316989,0.544252168789008,0.570762864891377,0.506816888086082,0.515590180124951,0.48420860196438,0.510711889863592,0.555918796036922,0.666417418055457,0.55519588464259,0.489238845059532,0.515677467871421,0.463576171023479,0.602421484594789,0.595489287449494,0.597391733545744,0.402975722483766,0.475305481382006,0.567440438425688
-460,grasp,12m,FC,0.519750524465511,0.547667649340351,0.570088909186719,0.516836934153397,0.510500600363998,0.480774298793314,0.500376533232146,0.555214497715762,0.662284963365125,0.555865170223511,0.495096133766345,0.513721598761512,0.462082238782392,0.603042515154617,0.594106723671896,0.59693665648936,0.400058823286703,0.470447458005878,0.569782397775466
-450,grasp,12m,FC,0.518703334268956,0.550547366073878,0.568149539197906,0.524702837721528,0.505081837236501,0.477348518881126,0.488690160515597,0.553892108194611,0.657916823902074,0.554176843362472,0.50009586479637,0.512192189301132,0.460344650839858,0.603803532677745,0.59259434346388,0.596410987972955,0.398010365843283,0.464632628291123,0.572225525700729
-440,grasp,12m,FC,0.517381651638461,0.552364649067385,0.564670300048059,0.530526963558356,0.499246675535051,0.473980574188918,0.475948971491214,0.55234054483618,0.653763054165788,0.550582179556066,0.503795358799622,0.511152912440264,0.459399019049537,0.604353986757357,0.592111903799479,0.597211706030943,0.396747703253917,0.457948502387542,0.574286454043366
-430,grasp,12m,FC,0.515947792505136,0.553387102245868,0.559946635709479,0.535749961491507,0.493293016300131,0.47114883775019,0.463053912426156,0.55029088929963,0.64956078982203,0.546101965760123,0.505610341162603,0.510155795100204,0.459598949412321,0.604814354677347,0.592126768352504,0.599631144122647,0.397219827412904,0.451410970012377,0.575530692644365
-420,grasp,12m,FC,0.513989212751155,0.553888320390554,0.553480502329145,0.540498518926346,0.4875883352832,0.469125575957673,0.451870323363728,0.54786308740709,0.644490780332856,0.541585682450648,0.507016976224949,0.509451922751597,0.460786872285551,0.60548859338041,0.592378601130711,0.601654488884878,0.399845020325211,0.445972651727634,0.576126897714424
-410,grasp,12m,FC,0.511175563707058,0.553603075461143,0.545065965296765,0.544214499428983,0.482952231775561,0.467380511811036,0.44242858693911,0.544824259909397,0.638446802202163,0.537716639200826,0.510399524524811,0.509187441934377,0.462950430502179,0.606508871523985,0.592740152499228,0.60270529181344,0.404369985321191,0.4409790738659,0.57614398446056
-400,grasp,12m,FC,0.507452983645417,0.553028022089158,0.535906324964485,0.546408975997628,0.480372734251013,0.466089976249392,0.435352280658278,0.541695245361416,0.632046805057696,0.535167435127866,0.513788518899168,0.509598576093347,0.466300914452408,0.607792049650255,0.593202118504626,0.601129823714471,0.410254572179501,0.437182468366793,0.576079017030187
-390,grasp,12m,FC,0.502795524812785,0.552862021962643,0.527138861811366,0.54722671967737,0.480169288287115,0.465106495149085,0.431950834590775,0.538239060104815,0.62573913104553,0.534321854991181,0.517509918028961,0.510709454386824,0.470556696782421,0.609032750916624,0.59374123454717,0.597931580183452,0.41623590497337,0.435020646951651,0.576580771214156
-380,grasp,12m,FC,0.497921548088387,0.552984088219801,0.518941784969839,0.547199869140967,0.482050599687714,0.463657630668254,0.433483605351483,0.534500356786049,0.619975448258998,0.53499979037663,0.52133600497068,0.512340117290188,0.476316217217257,0.610005916268979,0.59416223923906,0.594183334679142,0.421602418078856,0.434149214247823,0.577340525589029
-370,grasp,12m,FC,0.493538581852476,0.552743709932166,0.510820593236928,0.54567336239308,0.485360726758145,0.461536500688045,0.439589686481322,0.53069222185024,0.614876826171052,0.536652572835114,0.526434536038961,0.514447436266668,0.483692300245626,0.610800521201455,0.594161676265964,0.590498427049419,0.42575091799977,0.434697949476821,0.578235933412518
-360,grasp,12m,FC,0.489300562575953,0.551919460800956,0.503633971466957,0.542360728613603,0.489951797169034,0.459289780466647,0.448156294918252,0.527086796237865,0.610160735571501,0.539854776175772,0.532924975412989,0.516909414600672,0.491802511573017,0.611178693525736,0.593889580875602,0.587254538918402,0.429308075974673,0.435611739558241,0.57941132025419
-350,grasp,12m,FC,0.486290614941921,0.550926028571793,0.497469727144859,0.537715384712779,0.495379013017398,0.457426082899838,0.458065125866384,0.523849078408554,0.605700325634816,0.543777268054654,0.540468608098167,0.519519287772676,0.499738732815867,0.611000106922775,0.593527985203017,0.584653441385243,0.433457137048946,0.436226255930972,0.581110947587028
-340,grasp,12m,FC,0.484403568902048,0.549739543597946,0.492723505574909,0.532458526896162,0.501293198003269,0.455229586394363,0.466678627363572,0.521083041305645,0.601591048749561,0.547262328767992,0.548602414071388,0.521495422741052,0.506799376288563,0.610586581661066,0.592896675115632,0.582221792868026,0.437816312782366,0.436711445755431,0.583272345574648
-330,grasp,12m,FC,0.483679202087386,0.548044505583439,0.490105509038206,0.527196919356089,0.507457529210656,0.453316186910409,0.474046528789066,0.518887359864431,0.59754123465163,0.550494867083946,0.557427586121202,0.522825007876617,0.513087776982788,0.60983076728826,0.592012951550695,0.578667110582925,0.442440904817703,0.437419798195912,0.585890160771583
-320,grasp,12m,FC,0.48392681088213,0.546656426006546,0.489623152446926,0.521719864654808,0.513830124548426,0.452512482298064,0.481095620411461,0.516330624659024,0.594071002888031,0.553166346251005,0.56605884750311,0.523782907122064,0.51876321426262,0.608716806599119,0.591631407182191,0.574729415846556,0.447751231121207,0.438568609425339,0.588637590049839
-310,grasp,12m,FC,0.485149028226434,0.54535306732322,0.491725295198753,0.516126345431148,0.520392739190199,0.452656969547903,0.488019002552314,0.512588303246473,0.59115260148959,0.55524520734041,0.574033339031827,0.524737692766428,0.523648093747727,0.607386535364462,0.591782743033739,0.570207126294219,0.453618192624918,0.440515478541529,0.591744024990743
-300,grasp,12m,FC,0.487420416604185,0.54439268699113,0.495562402866282,0.5107069589809,0.527218223160128,0.453201017827417,0.495052853230334,0.507634076072034,0.588550961645554,0.556886204459614,0.581270863842542,0.525602234279974,0.5282990594196,0.605626395471001,0.592583244650107,0.565052452468266,0.460215065678556,0.443383191205117,0.594928703908613
-290,grasp,12m,FC,0.49040453536961,0.543523010087807,0.500073524291347,0.506054320358704,0.534150097023282,0.454281301188206,0.501616607020537,0.501539957459339,0.585549977317484,0.558589155662501,0.587376732124179,0.526872123764543,0.533115166022222,0.603602978045048,0.594127642895306,0.559578355455401,0.46686774067608,0.446870967852768,0.597655153823154
-280,grasp,12m,FC,0.493100202145272,0.543474893925905,0.505068819346909,0.503172233611814,0.54099074112466,0.455649659220792,0.507574326193499,0.494790452090544,0.581139132409502,0.560377461843131,0.591851632436535,0.528003615862496,0.537515196298427,0.601339509223464,0.596293636279401,0.554074836980342,0.473059327054207,0.450401520762115,0.599486635459346
-270,grasp,12m,FC,0.495609446239796,0.544037921429175,0.509387132631755,0.500737620472734,0.547696962364169,0.456663478361641,0.512767069135237,0.486914600015848,0.575530881255409,0.561927875665577,0.59517535228972,0.528889397435306,0.541689634033915,0.598882618179268,0.599486594867594,0.549020495277047,0.478168443317557,0.453118239455952,0.600255654853666
-260,grasp,12m,FC,0.498243082271967,0.544853787375064,0.512468244883412,0.498298321360783,0.554146986527832,0.457332175045929,0.517753142019212,0.478822864154182,0.569179465110288,0.562836992387125,0.597365147350858,0.529763899151952,0.545759122471227,0.596436528866725,0.602644019914081,0.544357977990667,0.482620618388086,0.455009879047185,0.599953330715553
-250,grasp,12m,FC,0.501077149932774,0.5459415126176,0.514674302367611,0.496694089371965,0.560765156940716,0.458142541239551,0.522413585664418,0.471930332906127,0.562307739081606,0.562304950761115,0.598789851210584,0.530086079064257,0.549993187401274,0.593700564794103,0.605516969527944,0.540218052984207,0.487002998068265,0.456163133579766,0.599716205897181
-240,grasp,12m,FC,0.504121779603384,0.546939059128831,0.515559280126626,0.49689446307502,0.56777217468996,0.459455577102143,0.526228696020163,0.465995593165777,0.555497455119127,0.560780351314068,0.599516014639334,0.529674978640104,0.554123851126011,0.590608504652172,0.607485554010235,0.535747971063804,0.491667213486455,0.457220220403611,0.600244544000575
-230,grasp,12m,FC,0.506965818295267,0.547338679205733,0.515252967511053,0.49897361222012,0.5748675368568,0.460927895475709,0.528670367127159,0.46023284020393,0.548760510989376,0.558338800143631,0.598707949096421,0.528251373950427,0.557881917260613,0.587541760322003,0.608371515001108,0.530316576401788,0.495411110961923,0.458504940654226,0.600812933677392
-220,grasp,12m,FC,0.508710085264292,0.54714000700052,0.514160224432769,0.501119354955475,0.581754521304064,0.462114088539797,0.53045252390141,0.455028977271995,0.542728669079084,0.555335158789532,0.596129544062651,0.525964300027082,0.561155351790866,0.584220801344298,0.608178904476839,0.524734544620285,0.497971605670648,0.460392038560481,0.600948290641114
-210,grasp,12m,FC,0.509153893381633,0.546762115090662,0.512951278029606,0.501628179201125,0.587811728692672,0.463097763028505,0.530847254006523,0.450125737067614,0.537183155693413,0.552226036789481,0.591643518493174,0.52276046157647,0.563995988937589,0.580608635179952,0.607645158985679,0.519675023327823,0.499048176835756,0.463458831252114,0.600102335925527
-200,grasp,12m,FC,0.508903578948045,0.546136606467373,0.512397011476558,0.500027786757923,0.593002242427943,0.463817920450071,0.530150366844892,0.44557546348692,0.533080372513705,0.549397095246133,0.585658008458502,0.518873232110245,0.56627459567922,0.576712805318481,0.60717058526032,0.514638283923404,0.498812046631843,0.467213225603458,0.598641100102654
-190,grasp,12m,FC,0.508516829041803,0.544861804278942,0.513465595850969,0.496871816017086,0.597173887160974,0.464735357022557,0.528364246262564,0.441221344268454,0.529957912291369,0.546494285767335,0.578253805777487,0.51455488321801,0.567226355843479,0.572598498546761,0.606801910186239,0.508939363145505,0.498412335891448,0.47188093058537,0.596824019730709
-180,grasp,12m,FC,0.508377623849233,0.542870670812891,0.515280817124852,0.493720347830726,0.600540498265376,0.465924857110079,0.525686151157244,0.437244942720356,0.527593230952095,0.543655114115304,0.569965593790041,0.510243433230647,0.567537237996649,0.568400783396386,0.606443856849878,0.502967636759389,0.497979057913167,0.4776623726003,0.595342825662181
-170,grasp,12m,FC,0.508128169139734,0.540575701684583,0.517480691771483,0.490975741162992,0.603479386691658,0.467699063627356,0.522996156496798,0.433339135499945,0.525809197133977,0.540690944636035,0.561115260206132,0.505427299001327,0.567600411144589,0.564250664276481,0.606933454463672,0.497737650482127,0.497514405813127,0.484194361849951,0.594468411991881
-160,grasp,12m,FC,0.507743266923677,0.538097499923564,0.519503780242574,0.488759078939741,0.605495526821155,0.470048921679312,0.520477599654752,0.429921951719245,0.524092191804558,0.53727946374114,0.551559465895864,0.500073086885447,0.566970949708949,0.560703805976599,0.608231629658234,0.493396888376627,0.496925034905469,0.491209508166235,0.594347636073894
-150,grasp,12m,FC,0.506560945770248,0.5357386119844,0.521012609890543,0.486060819398951,0.60636660443315,0.472467098193747,0.518416889899681,0.427302797957254,0.522400599763066,0.533912563695129,0.54270016619956,0.494776197822307,0.565226871556752,0.558040738345947,0.609796570932344,0.489922470448525,0.497028126616762,0.497770453689334,0.594238520942149
-140,grasp,12m,FC,0.504849715274433,0.533620834197433,0.522329103047427,0.483508405744838,0.606211728443159,0.474782095164514,0.515916110319085,0.426019061594837,0.520777581128575,0.531628259405312,0.536606074651691,0.489131068909677,0.562758606694424,0.555708597592323,0.611132247722521,0.486884342430425,0.49854298415476,0.503651051372608,0.593752511772299
-130,grasp,12m,FC,0.502686049347249,0.531712228297178,0.523597877413884,0.481495195128563,0.605592130016026,0.477120776526978,0.513251739093134,0.4268923985675,0.518801792821862,0.531020560979721,0.533239835035066,0.483422919538451,0.560230303078716,0.554113210552776,0.612080586033352,0.484069833231165,0.501457653179129,0.509065295474441,0.59356891921722
-120,grasp,12m,FC,0.500223794597747,0.530495299974938,0.524500963294316,0.47997322750094,0.604665627711442,0.479122091896762,0.510589174910198,0.429527160374477,0.51689556521241,0.532015000528261,0.532156359488599,0.477577947974925,0.55775094230901,0.553297747621957,0.612834912720564,0.482093418945077,0.504751526052409,0.513547771678106,0.593601044895377
-110,grasp,12m,FC,0.497429566804653,0.530226089258972,0.524961216616634,0.479111512670797,0.603984849230545,0.481657603597788,0.508208534245967,0.433325117989258,0.514551206706851,0.534319985245937,0.532608009052349,0.472094204150491,0.555535937972679,0.553021914681699,0.613031257847581,0.480069260878538,0.509104370933585,0.516988732437061,0.593893761718004
-100,grasp,12m,FC,0.494224057492928,0.53048155370537,0.52498675244824,0.4793364591994,0.603961040021235,0.483761591183603,0.505979656897749,0.43775768507963,0.511879525702853,0.538101391788688,0.533652992043661,0.467150330717302,0.553412269263238,0.553177610595022,0.612873582213124,0.477792649536105,0.513505197593329,0.518876405106303,0.594788666088591
-90,grasp,12m,FC,0.490569022444858,0.531547679808358,0.523677359282759,0.480876398204628,0.604213129275832,0.485297805026094,0.504175407743435,0.442955910728054,0.509074776347721,0.542555141800865,0.535413549153579,0.462905124447605,0.551297597649462,0.553557348645392,0.612693171122312,0.475903864254242,0.517542941478254,0.519609050767651,0.595475976161257
-80,grasp,12m,FC,0.486653985058456,0.533172725095877,0.520181698131284,0.48354230892304,0.604099184065201,0.486365779876522,0.503106993132639,0.448783158458442,0.505757291735477,0.547244585541155,0.536234030567551,0.459073285544661,0.548726874209482,0.554393817713983,0.61187108224156,0.475354216846469,0.521125326872535,0.519920288896787,0.595744986909292
-70,grasp,12m,FC,0.482699789450599,0.535488916083583,0.513857278719703,0.486847447308953,0.60322672120682,0.48682251835683,0.501615288904909,0.455137378533121,0.502156722586747,0.551678051210279,0.53532772209441,0.455171585932472,0.544801815178869,0.555627819236507,0.61033230989135,0.475882481455477,0.525163960515479,0.520358308900272,0.595238297569721
-60,grasp,12m,FC,0.478556962754621,0.538430372471838,0.505029415015953,0.490342589712365,0.602588453639741,0.486562406401482,0.498688873382984,0.46166660092524,0.498110538470735,0.55588327727952,0.532938584755146,0.451599273213803,0.539810244499979,0.556789435187771,0.607934288088032,0.476379213499914,0.530317936885392,0.521272486677637,0.592066466893249
-50,grasp,12m,FC,0.474424693444532,0.541129970713116,0.493801243141773,0.494240562214434,0.602335355554196,0.486116165430757,0.494200263549286,0.467868761242618,0.493955552986035,0.559478570548458,0.52937154911924,0.449096214373344,0.534615176380985,0.557696111184144,0.604708684849607,0.476599850708976,0.536048309617375,0.522991789082081,0.587016338241298
-40,grasp,12m,FC,0.471203205571152,0.543311769990094,0.480628607263463,0.498640282371815,0.601936987919615,0.486673761928038,0.488012903225544,0.473165106393284,0.489960610598695,0.561635990090169,0.525180532733466,0.447562782981053,0.529145958648228,0.558503643979015,0.600602438636307,0.476347831708603,0.541632044287739,0.525255116011866,0.580439036613819
-30,grasp,12m,FC,0.469199217656747,0.544311510810053,0.466797078088033,0.502748090945639,0.601052700498246,0.488390872577153,0.480641693277188,0.477099519564648,0.48612841181191,0.562283943934077,0.522508009013583,0.446945369971768,0.52336899998532,0.559458960299854,0.595734038048097,0.475474351388328,0.546579359721649,0.527801979183817,0.573212726840297
-20,grasp,12m,FC,0.468399839501707,0.544622413025711,0.453938373451067,0.506205445879228,0.599301835057341,0.491407168189395,0.471574996698489,0.480408494103297,0.481916312552153,0.561632682809783,0.520875141951375,0.446522799287696,0.517449546129298,0.560582483058106,0.590684534491552,0.473934034960443,0.550630336487427,0.530941006010277,0.565968879094439
-10,grasp,12m,FC,0.468415611957913,0.544680347434897,0.443111419845166,0.509492200181291,0.597231320198908,0.495521317451701,0.461675301397773,0.48341411997068,0.477118119930971,0.559719383843945,0.518965004420331,0.446193210452404,0.510980843515565,0.5617178097329,0.585073982056588,0.471484870518831,0.554234196743095,0.534546163931087,0.55886014671157
0,grasp,12m,FC,0.468515087002774,0.544315522827147,0.434712894805533,0.512468008002587,0.595187981307679,0.50094272678008,0.452673088183615,0.486947082159249,0.471890064747261,0.556755852471137,0.51773310922727,0.445595252123964,0.504259085707859,0.562735554819754,0.578837800286661,0.468174194346386,0.557075636266681,0.538165269705751,0.551857742912162
10,grasp,12m,FC,0.468337734536498,0.543826844246373,0.428549231224622,0.51486282212545,0.59294515003017,0.507230180507534,0.445348863533892,0.490323238423006,0.466807053920278,0.553065002632115,0.517203802935614,0.445287155099234,0.49776811058679,0.564022343862575,0.572849877920033,0.464396492175998,0.558797650651501,0.541538138797047,0.544796774471139
20,grasp,12m,FC,0.467576782275446,0.543551091532874,0.423594470555606,0.51728696123953,0.590111855212943,0.513641758173982,0.439336469379317,0.494224336702082,0.461791730715139,0.549032457689363,0.518136675691539,0.44498966768915,0.492344729253749,0.566129231564181,0.567028943813841,0.45988472537217,0.559201832086777,0.543817996348349,0.537734999620265
30,grasp,12m,FC,0.466448066077525,0.543575819032397,0.420094217913741,0.519400941678239,0.586619782091439,0.519130790340113,0.43475207210356,0.498036620763039,0.456017260355071,0.544996802958426,0.520420085105996,0.444528583365975,0.487983093560196,0.568978232282515,0.561954126121718,0.454492735347301,0.559171477568558,0.544860190593247,0.530760431551491
40,grasp,12m,FC,0.465394949021691,0.544307582054122,0.418774893830717,0.520857456615194,0.58240031251542,0.52397361995142,0.431429111529844,0.502155859252826,0.449261455133082,0.541844679447254,0.522931182696088,0.444092479214702,0.484787134127302,0.572240972417357,0.557367669047275,0.448877476993194,0.559211220341106,0.545030958841299,0.523776790890675
50,grasp,12m,FC,0.4651782892869,0.545922215256053,0.419050742111552,0.521986931189012,0.577586852390606,0.52749545895065,0.428971353438001,0.506489075524296,0.442092841374495,0.540595150079681,0.525597110789781,0.44391127044041,0.483103404952402,0.575591211705377,0.553166359284793,0.443951985994829,0.559405544851229,0.54481075308696,0.516384769101639
60,grasp,12m,FC,0.465921611330944,0.548457527308517,0.421209093713637,0.52302837606927,0.572173159169038,0.52960210221953,0.426424308312609,0.511045093020703,0.435617330935084,0.540911992801893,0.527915591850156,0.444610868402223,0.483228425384805,0.578724485711368,0.548936697905486,0.439700176868704,0.559619795724061,0.543895823919379,0.508719185773084
70,grasp,12m,FC,0.46750650904742,0.551224368640694,0.424634591252337,0.522824622274684,0.567005478996043,0.530244407201698,0.42315541459513,0.515722164442849,0.430219049976257,0.541393735964809,0.530225630730374,0.445797397273447,0.48557405216705,0.581453811347445,0.544677922123109,0.436217303912744,0.559461185955914,0.542440468446175,0.501730309955839
80,grasp,12m,FC,0.469194312002282,0.554039854889629,0.428989090597725,0.521614633561143,0.562579829986354,0.529961348641459,0.419194596230591,0.520744545556139,0.426596191349048,0.541855813780277,0.532906299339276,0.447264550828254,0.490203607497502,0.583991672000398,0.540418813135579,0.43398011192659,0.558200683069878,0.540325191516304,0.496584770513471
90,grasp,12m,FC,0.471262022561775,0.557361442419857,0.433591149131682,0.51901162284977,0.558550583017578,0.529137201501633,0.41466785293728,0.526202512668965,0.424512685598775,0.54267868754161,0.535460440715685,0.449651579346465,0.497054043688564,0.586200439684577,0.536424757025126,0.433422845934762,0.555992260807524,0.537663759640271,0.493372238644534
100,grasp,12m,FC,0.47337755761889,0.560867524774503,0.438112148317911,0.515514870120609,0.55480640187957,0.528366985915145,0.410226745591396,0.531427866712018,0.423481519781181,0.544922339806416,0.537720930660199,0.452739995019853,0.50611946711575,0.587903812471408,0.532919568906924,0.434953294719718,0.552880792889693,0.534376874569854,0.492199610071465
110,grasp,12m,FC,0.475849480215954,0.563972316296189,0.442655870579054,0.512754201833705,0.55137648724879,0.527381004523559,0.406535987421956,0.536338960449087,0.422655753361204,0.547753717272819,0.540309515684865,0.456110512385807,0.516136146316484,0.589098989227373,0.530018506508502,0.438416459120808,0.549274744566459,0.53044723672401,0.493308046981587
120,grasp,12m,FC,0.478683256071373,0.567056537719749,0.446520447055325,0.510602978740029,0.548229635169954,0.525766941027643,0.40418567453527,0.540705804295008,0.421781735000726,0.550409467235783,0.543356202507634,0.45931138269276,0.526325862718085,0.590118325648097,0.527432935263138,0.444239824994154,0.545678401028606,0.525628749042906,0.496300428576735
130,grasp,12m,FC,0.481117003922679,0.57004116363648,0.449624601806635,0.509213646685774,0.546029300575679,0.523458776003318,0.403570703439969,0.544533602894386,0.420174680398719,0.552125541297955,0.546891227975245,0.461994663205877,0.536549226230864,0.591177794283076,0.525704524907213,0.45135417686427,0.542198383700919,0.520101725360197,0.501245295380838
140,grasp,12m,FC,0.482549994962289,0.573183082538925,0.451929864077008,0.509134669492336,0.544308766061033,0.520513305744858,0.40586456263295,0.547109994792081,0.417918452666977,0.552907491150761,0.550635827844166,0.46412396579057,0.545746652849776,0.592649066559518,0.524576541885861,0.459187091734321,0.538583400614771,0.514200035318661,0.507347867051222
150,grasp,12m,FC,0.483325677503698,0.576103833136468,0.453424584669649,0.509771630746123,0.543089844311335,0.516571516313332,0.411191248763273,0.548798408019592,0.415438045073971,0.553006584772148,0.554376543709266,0.46531515242639,0.553854804074965,0.59447082802887,0.524341528379382,0.467249364552289,0.535138350317094,0.508400748626934,0.51403857258607
160,grasp,12m,FC,0.483627734165161,0.579192651168089,0.45267933043609,0.509824350651891,0.542672119369425,0.51153725314168,0.418984803671818,0.550003224234173,0.412432310945191,0.553351842385902,0.558214984327115,0.465419722127355,0.559876611154668,0.596550895806672,0.525077187339684,0.474959742877685,0.531663949563242,0.502233572962664,0.520559428169945
170,grasp,12m,FC,0.483701012375845,0.582360814331899,0.449924964126301,0.509442642104353,0.542563397733879,0.505806517381986,0.428063168568609,0.550947987095227,0.409360127037818,0.553753758697457,0.562702050819802,0.464847606541909,0.564218743100485,0.599032066351949,0.526362484219603,0.481546883461197,0.527984476320885,0.496265545552668,0.527143109704695
180,grasp,12m,FC,0.483586625017516,0.585411333756658,0.444728907745135,0.508711193926523,0.542874735133516,0.500074817999174,0.438151883737048,0.551292804110043,0.406160571410838,0.554228426950298,0.567103734521427,0.463886119954519,0.567850513440239,0.601761996920909,0.527893737640557,0.487320649771266,0.52379224416286,0.491003028172001,0.533344913964982
190,grasp,12m,FC,0.483369579600301,0.588345336232022,0.438484119762583,0.507173999086441,0.542940768981163,0.495105081722404,0.448641965965506,0.550754078409956,0.402739805119703,0.554620835101175,0.570526893254086,0.462927803559216,0.572024659740525,0.604624692032584,0.528945955677261,0.491403014533058,0.518740044519815,0.487020327144438,0.539237350653895
200,grasp,12m,FC,0.482998101925731,0.591193837151473,0.431621864579967,0.505613988840323,0.541856955358682,0.490784498772826,0.45909354966929,0.549299497947988,0.398906642938386,0.555533675972222,0.572621907126127,0.462589370341061,0.576572085820444,0.607497855210399,0.530382555059402,0.495400097887994,0.513453695015331,0.483703559216076,0.54449446141449
210,grasp,12m,FC,0.482268509201147,0.593112561283404,0.423791831211912,0.503965947800345,0.53983743119714,0.48693264180369,0.470185432210508,0.547238620160476,0.394156238586111,0.558225917868793,0.574406218721294,0.462517708246533,0.581121949741809,0.61045034970794,0.532217714488546,0.499827372571509,0.50925338897736,0.480380099068493,0.548855623739237
220,grasp,12m,FC,0.481264004974753,0.593973838130148,0.415876953740883,0.501842599761087,0.536754007514951,0.483015082600554,0.481328695046737,0.544855535973007,0.389178515631703,0.562369417423611,0.57586510532571,0.462210497269098,0.585659810943579,0.613274572705548,0.534317856632584,0.503851374504653,0.506225471735136,0.477697560772036,0.5524364869433
230,grasp,12m,FC,0.479981313669948,0.593826125097976,0.408249172798458,0.498307556798983,0.532690463483922,0.479550349655218,0.491506337085106,0.542568820785669,0.384347132406241,0.566907274216949,0.57678784921278,0.461763638927741,0.590568947436268,0.61603630398892,0.536241289219841,0.507912378125906,0.504475522836272,0.476050920726696,0.555186600400122
240,grasp,12m,FC,0.478476823163215,0.592977342212839,0.402253826505007,0.493976469480463,0.528366662880385,0.476663281686055,0.500265773897985,0.540568023620473,0.379551036689272,0.571283542348011,0.577412118195336,0.461564207644619,0.596208078461356,0.618606558125572,0.537923941262443,0.512017786093397,0.504633508199937,0.47594538212025,0.557546067300124
250,grasp,12m,FC,0.47745732639536,0.59139545003378,0.397959909753556,0.490028693294486,0.524020369776123,0.47492268280696,0.508208740507788,0.53844396883738,0.375653399666729,0.575006039980531,0.577102423740296,0.46151981456883,0.602840041437283,0.620831678248911,0.539636582714525,0.516080050114135,0.505921747716104,0.477355578973124,0.560189536474333
260,grasp,12m,FC,0.477038840091991,0.589050398054577,0.394863335196441,0.486245048622987,0.519420701228478,0.472967108608367,0.515828879203988,0.536264419684214,0.372854386448047,0.578045977594252,0.575098723634484,0.461920586840408,0.610338691594274,0.622443035633828,0.542290659805333,0.520580751622716,0.507706055121867,0.480268881143111,0.563157411821125
270,grasp,12m,FC,0.477170906010174,0.585831358896658,0.392757628599982,0.483027784773133,0.515178660459557,0.471520951584765,0.522863116547898,0.534485291586793,0.371722170927644,0.580226193992172,0.571929617039241,0.462443728723029,0.618804409303445,0.623597286783114,0.545824148836041,0.52551976360477,0.509206074586011,0.483793083019411,0.56685538239176
280,grasp,12m,FC,0.477911839693832,0.582361141994518,0.391676947075213,0.479833968045479,0.510830074225964,0.471657613752265,0.529102064478685,0.533037805808943,0.372083721872132,0.581679489796696,0.567894587678441,0.463148060571229,0.627324767018775,0.624442069710659,0.549906207252486,0.530523281231024,0.51044279295865,0.487648338430121,0.571187969093045
290,grasp,12m,FC,0.479340088998163,0.578796369308665,0.392459962835192,0.477314178558084,0.505989818367577,0.472982292684065,0.535087626856852,0.532025670339218,0.373078930790055,0.583114181531825,0.563107810678123,0.464014854996164,0.635119394929926,0.62482351944137,0.553748135340361,0.534815168831881,0.511093048490492,0.491986552407082,0.575883697071346
300,grasp,12m,FC,0.481211279712926,0.574694042137987,0.394643836078778,0.475309522775511,0.500741357675322,0.474659468469778,0.540618477572843,0.53140067346474,0.375488732421179,0.584346418261973,0.557932809304409,0.464658387421053,0.641927549996359,0.624857084790878,0.557009739803348,0.53836718855756,0.511119240845079,0.496232011072902,0.581227542100976
310,grasp,12m,FC,0.483128885826078,0.57014192864436,0.397965747799774,0.474107501544868,0.495733275480789,0.476367897546847,0.546195620190476,0.531475126249341,0.379170831320755,0.584562082011671,0.554628653089751,0.465066934063834,0.647420394976701,0.624717470568871,0.559649466225138,0.541655159405216,0.51075471357448,0.499431158911257,0.587236357091659
320,grasp,12m,FC,0.485012753748917,0.565584482155264,0.402012113110499,0.4729445405433,0.491012496263591,0.477814361332835,0.552057701724639,0.532007488596706,0.384101277616714,0.58431820281055,0.552188048745126,0.465210930222377,0.652027643404209,0.624798651036221,0.562016615892215,0.54473174671859,0.510177515505406,0.501356160342036,0.593489462475493
