Time,Condition,Age,ChannelPair,TrialNum,connect_overtime_LA_EEG_12_P04_CTS_MTH_chanpair_12m.mat,connect_overtime_LA_EEG_12_P05_CTS_MTH_chanpair_12m.mat,connect_overtime_LA_EEG_12_P06_CTS_MTH_chanpair_12m.mat,connect_overtime_LA_EEG_12_P07_CTS_MTH_chanpair_12m.mat,connect_overtime_LA_EEG_12_P08_CTS_MTH_chanpair_12m.mat,connect_overtime_LA_EEG_12_P10_CTS_MTH_chanpair_12m.mat,connect_overtime_LA_EEG_12_P11_CTS_MTH_chanpair_12m.mat,connect_overtime_LA_EEG_12_P16_CTS_MTH_chanpair_12m.mat,connect_overtime_LA_EEG_12_P17_CTS_MTH_chanpair_12m.mat,connect_overtime_LA_EEG_12_P19_CTS_MTH_chanpair_12m.mat,connect_overtime_LA_EEG_12_P20_CTS_MTH_chanpair_12m.mat,connect_overtime_LA_EEG_12_P21_CTS_MTH_chanpair_12m.mat,connect_overtime_LA_EEG_12_P22_CTS_MTH_chanpair_12m.mat,connect_overtime_LA_EEG_12_P23_CTS_MTH_chanpair_12m.mat,connect_overtime_LA_EEG_12_P24_CTS_MTH_chanpair_12m.mat,connect_overtime_LA_EEG_12_P25_CTS_MTH_chanpair_12m.mat,connect_overtime_LA_EEG_12_P26_CTS_MTH_chanpair_12m.mat,connect_overtime_LA_EEG_12_P27_CTS_MTH_chanpair_12m.mat,connect_overtime_LA_EEG_12_P28_CTS_MTH_chanpair_12m.mat
-1000,cane,12m,FC,Trial1,0.404991329810603,0.375055651120293,0.548835593453042,0.542974488595269,0.643639907450611,0.469498611140482,0.432044607876445,0.338534889625404,0.53746503031631,0.322548713387827,0.475981876816713,0.49528643109548,0.53359296251554,0.726546466879972,0.734444713853398,0.440322915719159,0.906478639507085,0.532943614668765,0.400189132505388
-990,cane,12m,FC,Trial1,0.401476697380517,0.380019049375803,0.554992844151984,0.549043263046817,0.640841532979259,0.48595436767761,0.434976943965584,0.336306148578614,0.525394310365523,0.308669965489517,0.468902596995482,0.49191100871742,0.522203292081421,0.712589460975557,0.73700821052172,0.454230794830851,0.90714572584903,0.525643118703273,0.387957456723998
-980,cane,12m,FC,Trial1,0.39579833738912,0.385702171944556,0.557327207916386,0.555201494662457,0.637783326998008,0.50231714900329,0.443690675840546,0.337013633694852,0.510310547976285,0.296985693334742,0.462422662002401,0.487552815757516,0.5104461546607,0.699352482658237,0.738660842523858,0.467087280379566,0.905815240366779,0.517880513710247,0.377264023700962
-970,cane,12m,FC,Trial1,0.386559182242455,0.390277797584468,0.5557834734959,0.561447668810625,0.632662685677471,0.517740711673998,0.456157021423721,0.339480639390958,0.492746499692798,0.290132001888837,0.455953092079971,0.482574155002037,0.50023458869394,0.687103939344122,0.739283476687681,0.477467080879878,0.902766659780972,0.509949114103748,0.366785745158023
-960,cane,12m,FC,Trial1,0.376854735591579,0.394195619501966,0.551231902163426,0.567364878533879,0.625286556041082,0.531371651880157,0.471980159792484,0.342909991987245,0.473119068190501,0.288397713889319,0.450536223265972,0.477316792024536,0.492922549897031,0.676169147343639,0.73907778173915,0.484883455489636,0.898098167825947,0.500702148768743,0.356569871992485
-950,cane,12m,FC,Trial1,0.368406689621106,0.398080229624266,0.544344070630995,0.575742121146485,0.617226115906543,0.544549501625487,0.490673266808245,0.346427806032266,0.451961394685066,0.28924053392086,0.445613203995097,0.472071052641734,0.488940826953971,0.6666491182764,0.735700482057627,0.486940517948061,0.891785804774718,0.490391881970584,0.348373629588756
-940,cane,12m,FC,Trial1,0.363051668871673,0.401997647032826,0.538003661053199,0.58264032461596,0.609798701582988,0.55751574722236,0.511389521631901,0.349706949382034,0.430146969251938,0.291397278599928,0.440946929265779,0.467954151408972,0.487769038508901,0.65853326104897,0.729819447112443,0.48499084274382,0.88394990500142,0.480120335152462,0.34194512082567
-930,cane,12m,FC,Trial1,0.362478358971829,0.405774558759967,0.533909732908976,0.586077067411472,0.604364994702077,0.569880383379447,0.532751719250146,0.353621296354124,0.406746414494123,0.291329042165579,0.435752284699177,0.465745453579955,0.488132861298225,0.651642514312014,0.721942332614537,0.48177009067606,0.87474284074552,0.471074666950986,0.343255669496911
-920,cane,12m,FC,Trial1,0.365956945179718,0.409261849168344,0.532429590516572,0.58645787107532,0.601028902915852,0.581691675777065,0.55305951358095,0.357335467283809,0.385000218213277,0.291798995681832,0.430460018846748,0.463548034900525,0.487966238218738,0.645432826201632,0.712435513400261,0.47854402315882,0.86431370905197,0.464114089339724,0.349009593937906
-910,cane,12m,FC,Trial1,0.372645358957529,0.412404123350631,0.531752578847838,0.586472590116021,0.601109521429892,0.591155812053507,0.569931920837093,0.360837665686715,0.367289387144131,0.293401319605557,0.425724323512831,0.460668663227773,0.489493100110334,0.638676524885445,0.701727947423612,0.476336838796797,0.852806630870953,0.459299078730794,0.357187256947007
-900,cane,12m,FC,Trial1,0.384293696710001,0.415210305279875,0.53160757559104,0.58637841851496,0.605476247012367,0.599112241893096,0.581804385392056,0.364273424452207,0.35571188585085,0.295010413593334,0.42409530144685,0.455932163656657,0.491819792856095,0.62852731258618,0.69014959741962,0.475649057812239,0.840365841273751,0.455791525929073,0.367178963899472
-890,cane,12m,FC,Trial1,0.403708059321841,0.417633023428162,0.531833875501568,0.58658271143707,0.613392183533173,0.606599795647704,0.590870195565727,0.368229613326288,0.351360359706017,0.301983351351521,0.427332583153497,0.448557373677163,0.492952601700321,0.616775080130297,0.677933883220911,0.476618120743642,0.827137571383457,0.452650416273905,0.377756063888714
-880,cane,12m,FC,Trial1,0.427863948884574,0.419411591727655,0.531316261706646,0.586222424982693,0.622950558198443,0.614825594717734,0.596907509158246,0.373846697556863,0.354942378496752,0.309221189478914,0.435950518132478,0.438640269220798,0.491714910551122,0.605026781298805,0.665245496825429,0.479179491799704,0.813338704540772,0.451101073433566,0.388678742891773
-870,cane,12m,FC,Trial1,0.454383899602765,0.419974277197295,0.529181179999672,0.584116862387055,0.633697188774276,0.623914141437996,0.598598218367871,0.382541671007334,0.363539008888182,0.317163073404292,0.450596664495809,0.426546102740829,0.486711714574584,0.593788832564221,0.652193873546422,0.483168592625401,0.799347257828749,0.451386570197951,0.39935433124819
-860,cane,12m,FC,Trial1,0.481958885853363,0.418493948711043,0.524653274920175,0.582464617641637,0.645683078230426,0.63277444198024,0.598484212895123,0.396261590358954,0.374764365231883,0.327693236153569,0.467787382239361,0.412282220905049,0.482244553517648,0.583365399886603,0.638836183206059,0.488459011276298,0.785564004268234,0.453328509882172,0.408732736043611
-850,cane,12m,FC,Trial1,0.509185190036332,0.413609884935993,0.515182694878582,0.581557383049598,0.6591859018838,0.641404026015001,0.597825984423706,0.41535930937815,0.386733590116223,0.339617087453836,0.485844050043114,0.395931054755308,0.479343950724739,0.573886340429274,0.625169230473041,0.49487780239551,0.772246355075349,0.456645391622163,0.41641427519029
-840,cane,12m,FC,Trial1,0.536042665337747,0.405622023264019,0.502901781707258,0.580516854252598,0.6743656717047,0.649306362013583,0.598064736281627,0.434493147220907,0.397731339577325,0.353284617605039,0.503569847810086,0.380719634526589,0.478078461338755,0.565266088622129,0.61108678893266,0.501735323984139,0.759517548729939,0.460991015376875,0.422223527264763
-830,cane,12m,FC,Trial1,0.56201200065411,0.396531192928745,0.489162025201978,0.578301578536809,0.690647091279219,0.656814835807915,0.599372365752152,0.444186543736658,0.408301065744049,0.368550605148281,0.519663430287678,0.369008389798215,0.477740232458105,0.557181810791981,0.596209737847026,0.508429133087012,0.747432420922689,0.465856797350623,0.426130602341433
-820,cane,12m,FC,Trial1,0.586244150342645,0.386568180301678,0.474244479587062,0.576851263058225,0.706355012047891,0.661511810212667,0.601430275666623,0.446990912800031,0.417810462484834,0.384702574818558,0.533723475301312,0.362641818341954,0.477347024100805,0.549787663578257,0.578638410693972,0.514375001347079,0.736029732977155,0.470331426487543,0.428055416037528
-810,cane,12m,FC,Trial1,0.60794214680946,0.377270126109584,0.459556618684374,0.576239306385178,0.719246000450439,0.664162630417109,0.604432878527109,0.44698877525197,0.424761027555861,0.400346876691951,0.545788647990511,0.358957053189592,0.476693824948875,0.543643381157831,0.556903377554307,0.519215037519159,0.725368446048876,0.472535571340553,0.427450979313982
-800,cane,12m,FC,Trial1,0.626196614919574,0.370011700865589,0.449133559065501,0.57665285560859,0.730131324945882,0.665525171506168,0.608460438651511,0.44534594976756,0.431085662401573,0.414259419761094,0.555983394796605,0.359725947343599,0.476748530920145,0.538179176497636,0.535175127412283,0.522779884388806,0.7155426686554,0.471384378857871,0.425011126409323
-790,cane,12m,FC,Trial1,0.639849600062177,0.36520861102068,0.441772407743935,0.578132700791176,0.737943047103658,0.664655508727085,0.614163395357695,0.441937355887197,0.436100853263761,0.427839661874448,0.564410766346337,0.364608529821848,0.475698530056931,0.53379765422681,0.513818722177137,0.523028862578008,0.706654115683552,0.467508138663414,0.421387637913833
-780,cane,12m,FC,Trial1,0.649129739476442,0.363092889497637,0.436041565025404,0.580520933100503,0.740602616863347,0.66297139461259,0.62169216115882,0.433623781764622,0.439637531281983,0.441566369558568,0.571288085628628,0.369524389238619,0.474251775606955,0.528727516652291,0.492577479430781,0.519435158762638,0.698736957530189,0.461196016428657,0.419970684130495
-770,cane,12m,FC,Trial1,0.653539116582325,0.363904667222153,0.431047162213128,0.58341263209227,0.738489993028322,0.661084779133306,0.630572222045273,0.42171576726421,0.442067542695204,0.455195628173057,0.576894258610722,0.370195358572036,0.472775695247126,0.523825822205419,0.472085734805209,0.511235455114536,0.691660686348878,0.453242072451901,0.422530347503973
-760,cane,12m,FC,Trial1,0.651239191723168,0.367831960098718,0.425886557307834,0.586095947377742,0.733605516766267,0.657737363170767,0.642442162309741,0.410034229549242,0.444057453086961,0.467635442178327,0.580156899484495,0.370945025936038,0.471623671385443,0.520381241893088,0.452819930660394,0.499766442818764,0.68500565205791,0.445508620172085,0.426320204305697
-750,cane,12m,FC,Trial1,0.645376492915095,0.374937571906978,0.420774425683197,0.586459378100631,0.725905487412022,0.652374281377128,0.656494273874792,0.400968966208433,0.445946124468719,0.477182842606155,0.577341349638433,0.372307693414802,0.47105816034122,0.517617173794461,0.43535019261769,0.486148549929578,0.677855556294722,0.437496136299242,0.431186256515097
-740,cane,12m,FC,Trial1,0.636279186144696,0.385344605069228,0.416938513912985,0.583605506879267,0.715306382264427,0.648333505308107,0.671428459292813,0.393401371272872,0.447884083054572,0.483688615944561,0.56878257427132,0.374675352886639,0.471176531661151,0.514840169131708,0.420884791985403,0.470910209787774,0.66735524893829,0.428462638728465,0.438680488864958
-730,cane,12m,FC,Trial1,0.626542610079801,0.399405994254317,0.41330332558753,0.575928807894344,0.701970544458614,0.644301696063686,0.685130541656013,0.386771373436283,0.449851395678292,0.488721345229159,0.557569785714168,0.378386158590802,0.471831986464718,0.511922329740614,0.412289512025337,0.454954461384944,0.65421427127292,0.420179877560384,0.450924145089142
-720,cane,12m,FC,Trial1,0.616594821049407,0.416915163633627,0.410361589035815,0.565540282738245,0.68626494304634,0.635699105086323,0.695080504612396,0.381302626453301,0.451682386540225,0.492580339457798,0.545170246154146,0.383679882584275,0.472610587612421,0.509087961901507,0.408807461041781,0.439821524734612,0.640025126661923,0.410304018174586,0.464545161108561
-710,cane,12m,FC,Trial1,0.606706145475936,0.438234749838583,0.40960081129832,0.553296504226878,0.670458595498394,0.62318973719681,0.699405141342683,0.377172356405828,0.45309279455094,0.495768394536468,0.532511533709648,0.39064552944572,0.472825734297781,0.510450679864725,0.410000258424556,0.426282996114218,0.625555536029469,0.399485141236358,0.47702601629715
-700,cane,12m,FC,Trial1,0.59902926768677,0.463335483446781,0.412416520033866,0.539397687664649,0.655985660309287,0.609193422615658,0.695418044708449,0.373922942923854,0.453775186538727,0.49890059256788,0.5208636444773,0.399262719522901,0.471428650195013,0.513979288024533,0.415002674940163,0.415676180292828,0.611512994104312,0.388858510490057,0.486861503897306
-690,cane,12m,FC,Trial1,0.593469040112927,0.489890140053885,0.419859202998037,0.524737500294324,0.643484957795111,0.594875884381211,0.683383886961707,0.36953610471337,0.453589219811548,0.502605882440555,0.510752833080624,0.409485448672574,0.467216157518711,0.517925833866323,0.422903272486254,0.408845017951152,0.59766740553021,0.378689759134802,0.495571675249019
-680,cane,12m,FC,Trial1,0.588604339580126,0.516176324084035,0.431028311467738,0.508765900980455,0.631519761108318,0.580669563049569,0.66499825426321,0.364418385701491,0.452507969691264,0.507456359719261,0.502672907716317,0.421260227226047,0.459709006059867,0.523744187542807,0.43290297585453,0.408007705159848,0.585575467013008,0.369479920401031,0.504349095929213
-670,cane,12m,FC,Trial1,0.584019318035791,0.541303115315214,0.44432311833659,0.491901810233255,0.620224443336438,0.56662106034779,0.643292497919021,0.361781913955669,0.450425637733567,0.514000442026943,0.496991455649877,0.434450776300666,0.449068645121007,0.533767947234424,0.444420740938037,0.413890607691619,0.576654396399085,0.364103355715229,0.511186120305424
-660,cane,12m,FC,Trial1,0.579976310159891,0.565830736817688,0.458826725137073,0.474826538645934,0.609226258717983,0.552577250930483,0.619300805123038,0.359307994819289,0.447113830908185,0.523535620696867,0.49391267843875,0.448735129496829,0.435697252896337,0.545757734757944,0.457055798177517,0.423768247166388,0.570714316936024,0.361123248099249,0.515858634209966
-650,cane,12m,FC,Trial1,0.576230608720739,0.589512045212468,0.474325704464116,0.458027927228887,0.598037760526762,0.538361805980217,0.593558382566945,0.357994575541086,0.442304377414275,0.536515062830286,0.493912755012403,0.463647094148886,0.419944961825807,0.559130013247413,0.470404302146593,0.436342546507743,0.567744616749591,0.357732269604422,0.518545442171935
-640,cane,12m,FC,Trial1,0.570961774662556,0.611320514168312,0.491545312710038,0.441890689955079,0.585607564993479,0.523906791951167,0.566351816862514,0.35737558860617,0.435801830253179,0.551719385365766,0.498841346564372,0.478697915606763,0.402131676119827,0.573813390861521,0.483829661558216,0.450832802321023,0.567578702338341,0.351712831857868,0.519637223585777
-630,cane,12m,FC,Trial1,0.566690905864632,0.629229007664342,0.511232517115283,0.426799030133793,0.571353153936474,0.509035328378717,0.537201960580514,0.357546196421381,0.42766729592953,0.566242708314613,0.510132030029223,0.493461223475282,0.383281478260361,0.589436817060269,0.496473432027044,0.466519252161947,0.56954190746585,0.344648715777366,0.519610887810285
-620,cane,12m,FC,Trial1,0.566520495714089,0.642793768570388,0.531217861277468,0.413162421417073,0.556026460338735,0.493339537656179,0.506470505514441,0.357610600114651,0.419227138636349,0.580670000997877,0.527332909048236,0.50762656444451,0.364623451348216,0.606018207142191,0.507374799067247,0.481437486536586,0.57277372413564,0.338042191387109,0.518925849665353
-610,cane,12m,FC,Trial1,0.570937726834565,0.650590621581484,0.550136673324248,0.401477110189872,0.541173526020788,0.475179809737283,0.475410835895518,0.358846642309891,0.413782271330818,0.594155121323576,0.54895891416353,0.521026056946633,0.347650198671944,0.624999708555506,0.515455145848368,0.494646970452804,0.576498173204907,0.331724066127635,0.518055651869329
-600,cane,12m,FC,Trial1,0.580333550361181,0.655894205299613,0.566521463382239,0.392266427426048,0.527837194527096,0.455597675654793,0.444034571825191,0.362442681464846,0.412886537393288,0.606139712385944,0.573378739632856,0.533681935696229,0.33124372319775,0.644809211000017,0.519642818749198,0.506141508885225,0.580202828775504,0.324907811472073,0.517900262670018
-590,cane,12m,FC,Trial1,0.59467784599353,0.659719559074525,0.578493392384657,0.384910542577861,0.517158506323912,0.434976206988577,0.412886266746939,0.36766651853792,0.414215232095473,0.61698866284465,0.597436084156698,0.546179258506591,0.317391464793661,0.662955543627396,0.517801797009062,0.514534422437113,0.58367266471285,0.316569774585833,0.517006111154138
-580,cane,12m,FC,Trial1,0.610350558366789,0.662616294186789,0.584867199760637,0.37819048207245,0.510788944258213,0.414462248993911,0.382741450727193,0.375831284812263,0.417363366299258,0.62654604812573,0.618396754436486,0.558912455766275,0.308504442745131,0.676649571742629,0.511598331834265,0.518044179686082,0.586916188809788,0.309413858549015,0.512156830682669
-570,cane,12m,FC,Trial1,0.62767596366283,0.664693864072427,0.589869623725006,0.371554353864641,0.509252065892947,0.395761542319281,0.354472788183276,0.385934845160744,0.422623830028588,0.631024797783133,0.635674988018621,0.571307438984552,0.30852863371361,0.685793312978519,0.50167055462865,0.515809209179252,0.590082793334661,0.305001738921597,0.50505158955984
-560,cane,12m,FC,Trial1,0.647432889182912,0.665837232751193,0.594946968778002,0.364649987197032,0.511891839659901,0.38056606701288,0.331630849000103,0.397209888547987,0.432569120309315,0.630081405930781,0.649297548519467,0.582143669412973,0.31755442573935,0.688284038907169,0.489321719214443,0.510461815118485,0.593409519039215,0.302443685001489,0.496293867170962
-550,cane,12m,FC,Trial1,0.668662204286529,0.665804432185575,0.600978395027464,0.354642395747516,0.517977252476436,0.368773280516857,0.319507326893437,0.409034183542003,0.449094322503401,0.622575244417459,0.65925209805287,0.591833374146444,0.330846650545745,0.683663504814658,0.475739975059769,0.502127570653481,0.597085846049111,0.301983278722993,0.486686111638591
-540,cane,12m,FC,Trial1,0.689360443346783,0.66462232138435,0.606712755390282,0.341384485073887,0.526541694049662,0.36203633543177,0.315528140901549,0.420713738672362,0.472715381278952,0.60784051949601,0.665402169201004,0.60001842138564,0.345178206573656,0.674042327821644,0.461247270407006,0.493529493871545,0.60087065235638,0.303051425593427,0.477374965294734
-530,cane,12m,FC,Trial1,0.705937714328849,0.661555219803251,0.611051165673976,0.32782590891651,0.536717048374575,0.360347650287092,0.316017481642138,0.429487986943738,0.500540668676904,0.589678692414313,0.665996392568972,0.606213620142214,0.359369081002205,0.660723758619433,0.446847543369733,0.486914307533357,0.605844539346805,0.308767284354217,0.467165582497538
-520,cane,12m,FC,Trial1,0.721692648815195,0.656384058867842,0.610225947236001,0.316098148092765,0.547929684508188,0.362744740696485,0.319676309376421,0.43623442268797,0.529787574448412,0.569991360003032,0.657273275994124,0.610804158650738,0.37537305152753,0.644625313422775,0.433745588502296,0.479821568483403,0.611815227869328,0.318298243820074,0.457787941546936
-510,cane,12m,FC,Trial1,0.736094540048607,0.649927894176835,0.605224453782136,0.307786334950418,0.559839728881759,0.368729092995804,0.326342252494818,0.442579674605819,0.560240768689774,0.550314821744533,0.637054909660927,0.614255535442971,0.394486297449861,0.626706700222079,0.422786765107318,0.470230194491194,0.616416491699106,0.331271567598652,0.45041557221689
-500,cane,12m,FC,Trial1,0.748130168330971,0.642215042053335,0.597376835929546,0.303161718603778,0.5722497498046,0.378015356151314,0.335664424867408,0.449890770455349,0.59186968671715,0.532223515674891,0.611515024261291,0.61662246063881,0.41552090134813,0.607851652318409,0.414614139135994,0.458809435751052,0.621160211031021,0.348004508918473,0.445382729067962
-490,cane,12m,FC,Trial1,0.758637427248521,0.63328134212504,0.58770522873738,0.301666777491241,0.585049807003532,0.390692464072306,0.345831291895348,0.459157008070989,0.624456705805628,0.517373951754781,0.582430527436409,0.617304743547568,0.437500517769455,0.588841812733793,0.409791703421782,0.448112775618085,0.625897417195356,0.368071740967136,0.443046162706249
-480,cane,12m,FC,Trial1,0.768133717223306,0.624299711368076,0.57718733445778,0.302597731159531,0.598201725525932,0.403465092049805,0.356057812804869,0.466904095819473,0.657009767105527,0.507261037804994,0.552921913896616,0.615385762876469,0.459226172425369,0.570392585200768,0.408829371181588,0.43917734198854,0.629980296335284,0.390199800474395,0.442795073188177
-470,cane,12m,FC,Trial1,0.776149261381503,0.615386134768094,0.566274884128946,0.302799078817633,0.611645756999161,0.411395383165468,0.365822338045606,0.474314149474867,0.688185741843594,0.503386165995193,0.523825786006772,0.610998621679707,0.479476822277351,0.553087102006061,0.412123206519586,0.431040720868797,0.632871572898263,0.413984589734236,0.440572361701572
-460,cane,12m,FC,Trial1,0.780108215980783,0.607957927466387,0.554852812686355,0.302494765086691,0.624772002381404,0.417103884421239,0.374370167223259,0.480899351079048,0.716752643028911,0.50804757007668,0.495378772303873,0.60675419664901,0.497505612226754,0.53744419930418,0.42297695579411,0.421942728242554,0.63433562879262,0.438613944573858,0.438356728162169
-450,cane,12m,FC,Trial1,0.780240680083117,0.602727666538486,0.54054636901428,0.303437701802263,0.637307634916601,0.422485049681839,0.38204708350167,0.486548532274103,0.741097616996565,0.519192044203858,0.46768115551023,0.603599461911791,0.512008480124204,0.524899851232604,0.440683385647123,0.411597944961377,0.634301101542588,0.463648151903951,0.436836855913348
-440,cane,12m,FC,Trial1,0.778923763007769,0.599721957842289,0.522801480099257,0.304954331642093,0.650183751778715,0.428660115634183,0.391341292420174,0.491118333487658,0.759738484436055,0.537781634574667,0.440823162910972,0.601818394803195,0.521630430071436,0.516784165894253,0.461274358145803,0.400105348214368,0.63272552427626,0.489054084677526,0.438583897154009
-430,cane,12m,FC,Trial1,0.776841946922562,0.598385796933664,0.505719884479221,0.306342469490396,0.662100701971868,0.436522195230669,0.398117514401128,0.494267023390339,0.772379511153123,0.558806327295553,0.414931420512571,0.60133494198384,0.526865862137512,0.511427585409658,0.483333163570471,0.388819737268074,0.629555115821566,0.514793028006424,0.444409444864997
-420,cane,12m,FC,Trial1,0.77449172890512,0.598298158226986,0.490252108440516,0.307993250795835,0.671959501591034,0.44658102670888,0.404061467881609,0.497845588723386,0.780457306402523,0.580049309853733,0.390128232045863,0.601775464943658,0.52977375964684,0.509877036506129,0.50439803354688,0.378601145878158,0.624713159393918,0.540743945969779,0.453798647131898
-410,cane,12m,FC,Trial1,0.772211581836533,0.599608818341721,0.476267724577006,0.310319095819351,0.681312695790856,0.456253337651809,0.409330599084004,0.501475242102364,0.784114718555987,0.600767733371036,0.366600143696463,0.603348224688098,0.530643420571148,0.509696827076066,0.523476945076953,0.369692624610398,0.61810300354423,0.566760987430395,0.465192974706901
-400,cane,12m,FC,Trial1,0.770183726260087,0.602141872727014,0.463553467535098,0.313393810996996,0.690329703903897,0.465552856916583,0.414074994807581,0.503418385886621,0.781567741207315,0.619352814952448,0.344689995981836,0.605153753196022,0.52916445474698,0.510797872639719,0.53934625464259,0.362036367041559,0.609643917328517,0.593026241878103,0.477300545398864
-390,cane,12m,FC,Trial1,0.768448587437052,0.604898342168252,0.450678169055154,0.317089760018833,0.699431467408197,0.475124193498345,0.418053713592728,0.499874718101675,0.774630546236721,0.635286739212748,0.325356825860275,0.604502454080238,0.527808482431621,0.512324144338757,0.548410585786397,0.355246685738135,0.599356850516775,0.621206342380639,0.489055064393193
-380,cane,12m,FC,Trial1,0.766911496128984,0.607330227833286,0.435662021437671,0.32112933196335,0.70840244461798,0.484641565837808,0.420839613711079,0.493084261487132,0.764205122541394,0.648470825023541,0.313941106463571,0.599097483444827,0.52650862129492,0.511353444942771,0.552128175715405,0.350119212914527,0.587482831510174,0.651300628127811,0.499388273866516
-370,cane,12m,FC,Trial1,0.765304426837521,0.609571918630663,0.418709797489721,0.325027896536673,0.7160528455267,0.494596152244215,0.421906712519015,0.483368762398115,0.751201615063686,0.6586134641099,0.311021123245292,0.584235969928951,0.52378631673216,0.507887757058089,0.550680712471393,0.350677257418762,0.5752306349376,0.681238298121565,0.507810173791503
-360,cane,12m,FC,Trial1,0.761985712067373,0.609698664464714,0.40014395153494,0.327586949731092,0.723640988950023,0.505085943533401,0.420400468993859,0.470877661740884,0.736281135943198,0.664825800956438,0.310489338217447,0.561664443313424,0.521006950404187,0.503531572899568,0.546451550830385,0.355088580054154,0.564433390633529,0.709008367343851,0.514036187146288
-350,cane,12m,FC,Trial1,0.754715868104275,0.608677859463345,0.380612353437997,0.326273959460304,0.730879815820359,0.516061659559471,0.414537184437741,0.456051685022768,0.720120900254953,0.66806827774667,0.311348276364454,0.533023898636244,0.517733775964856,0.498124209227219,0.541526203378508,0.360691940213223,0.553986696101291,0.733386318572332,0.519269268768213
-340,cane,12m,FC,Trial1,0.747222072086559,0.606297301705171,0.360572161033872,0.321835626185031,0.73794458878436,0.527408150012598,0.402467906870299,0.438553755443675,0.703393172123601,0.669299148076921,0.313000251965474,0.502068064347596,0.513685059535415,0.490471809229222,0.537946783385044,0.366315551152197,0.542903930107535,0.75344404381141,0.524791183596541
-330,cane,12m,FC,Trial1,0.741747345577548,0.602586722689266,0.339611327079882,0.315508397358327,0.744850524327918,0.538987120676892,0.38636195048884,0.421676878109939,0.685790736155735,0.668870351697853,0.308112757737665,0.470468654559471,0.508559331918513,0.48144563845782,0.538234989735585,0.370822496751203,0.531513695099181,0.765735054962905,0.531395306560139
-320,cane,12m,FC,Trial1,0.736755979953732,0.598154601236217,0.31912186319445,0.310110225459167,0.751518409594499,0.550625555451976,0.371225436657499,0.410732616252266,0.667263601194643,0.667053110040967,0.302025353703032,0.439524526899744,0.50109362446251,0.472515848468308,0.542690293070992,0.372902479337707,0.521108574733206,0.771698831199287,0.539516177831126
-310,cane,12m,FC,Trial1,0.731646248256537,0.594070638064918,0.305851167345075,0.308105682677488,0.757848329611297,0.561998586866303,0.360044235570643,0.402100113977792,0.648771028890746,0.663976211163258,0.296026887689531,0.409929999450636,0.491610059538651,0.46419649991596,0.549829366281816,0.375189343224238,0.512687335556022,0.772129278453982,0.549284954504239
-300,cane,12m,FC,Trial1,0.72515023563378,0.589691113889159,0.298306494812059,0.31367037266207,0.763748749759371,0.572474930564883,0.352626383892167,0.392794842564062,0.63091754497965,0.659630262243765,0.291414013141183,0.383536966507429,0.482474223005572,0.456578387133438,0.557861161716406,0.377634778095326,0.506273369938576,0.767279204183254,0.560456807120905
-290,cane,12m,FC,Trial1,0.711144020742862,0.583379463240056,0.294345293476506,0.320879940269497,0.769158297926114,0.580354217406827,0.348924695425407,0.383848188386641,0.614111678153356,0.65396046644461,0.288873891433384,0.36101478032605,0.474655600237111,0.449159623049787,0.565821208104107,0.384055399384437,0.501496209255302,0.757140851123253,0.570460589428809
-280,cane,12m,FC,Trial1,0.693518409892325,0.57412074441501,0.298844557584058,0.327642400429853,0.774067246954709,0.583594342136682,0.347562018113641,0.373892986468769,0.598611616734072,0.64703792055587,0.288998280586604,0.3424251897552,0.467914836471526,0.439685202585986,0.575184349236129,0.394886767282372,0.494698876241508,0.741317700761587,0.581331108796887
-270,cane,12m,FC,Trial1,0.673102673623145,0.562354788979685,0.306382303865059,0.332055077451124,0.778547897635654,0.584339191487832,0.349377829252927,0.361846295358943,0.584578351715116,0.639107642889425,0.291505900458887,0.329966786511339,0.458595191746685,0.429159549061786,0.587218952921616,0.406440089487334,0.486902137241708,0.71893309758938,0.591235064756591
-260,cane,12m,FC,Trial1,0.65141313621611,0.556925989691001,0.31663155231326,0.334893080623075,0.782799738079131,0.585147942395668,0.353266591491227,0.352192589469852,0.572353389274603,0.63061767777969,0.295551313190773,0.325727971126744,0.445913927071002,0.417417312139861,0.601171874166813,0.419538709056294,0.478895744673003,0.694056327122852,0.599281377206241
-250,cane,12m,FC,Trial1,0.632446561986026,0.553744311910915,0.329637245352651,0.33790546408671,0.787176603843667,0.585750669631722,0.358089776292292,0.341256052523583,0.562146170670911,0.622069895785031,0.302139715648447,0.32691853615594,0.43215458078421,0.404238201170823,0.615929935967367,0.434671936537578,0.47079126284055,0.668081144189418,0.604905227527447
-240,cane,12m,FC,Trial1,0.616407874191638,0.552569304365408,0.345551425920505,0.341791664162328,0.792132426142278,0.586202822839887,0.363290408723228,0.331584095273509,0.552646713680787,0.613857895730777,0.308023222184709,0.333212374456258,0.418160369043726,0.389611389331491,0.630902381929157,0.450355241215012,0.46255876152764,0.642334325584275,0.608083548057276
-230,cane,12m,FC,Trial1,0.601922628232243,0.553229524170151,0.364558403619526,0.347012299382029,0.798193938347528,0.586248794996892,0.367423507562524,0.323685676621226,0.541557715707957,0.606287700764869,0.311614764910826,0.343539753438494,0.404512584781828,0.375146943401184,0.645831782910329,0.466435853313278,0.454020178260869,0.617923112549743,0.609247982950273
-220,cane,12m,FC,Trial1,0.590211557111905,0.555237601726044,0.385907484406033,0.356408479556179,0.805895685057013,0.585325193391625,0.370013557620444,0.317352188941031,0.529037504454503,0.598547602544294,0.313074816211032,0.357271767608444,0.392041749119272,0.361828258604095,0.66061433354911,0.482145587579778,0.444883159287643,0.598265657011308,0.609072484667462
-210,cane,12m,FC,Trial1,0.583539002383146,0.558226537829871,0.407864119904175,0.372525393901454,0.815477569064615,0.583826864867024,0.370881475356038,0.313295227106777,0.515042976782596,0.589024752291458,0.313205319873739,0.373937748803158,0.381440091342802,0.350547664293258,0.675204972316505,0.497335944257912,0.435659778882022,0.580770995930676,0.607665177974185
-200,cane,12m,FC,Trial1,0.584598370433108,0.562028446424305,0.428305278069992,0.393684580399401,0.826048050325896,0.582815044617721,0.368929007908739,0.313103111641891,0.499697103775707,0.578386492071745,0.311614045674385,0.393023413747829,0.371621277194008,0.342044625579139,0.689565930998143,0.512144908844481,0.42606407910064,0.564641250194366,0.607125662301855
-190,cane,12m,FC,Trial1,0.590906301643817,0.566610492346779,0.444312228581259,0.419514446743858,0.836086279394495,0.582207762068885,0.366423584699988,0.316346375654627,0.48317157855652,0.566815531307176,0.308899559664618,0.413958439513476,0.360756732956835,0.336868473410563,0.703645573515572,0.526430665125823,0.415685426789922,0.54996385783584,0.606669502327678
-180,cane,12m,FC,Trial1,0.598571562973512,0.572150538822845,0.451107435632566,0.448871817677492,0.84498779427464,0.581747090513123,0.365607476599354,0.320250745419497,0.465699692437169,0.554456503842085,0.308758980682782,0.436179404021792,0.348508473634134,0.33519176285529,0.717372421180901,0.539728522568085,0.405288388539043,0.537124973896526,0.604828597307357
-170,cane,12m,FC,Trial1,0.605086522892678,0.579181937072134,0.449146427820021,0.480299496112668,0.851627601724414,0.581280382338158,0.366767901959755,0.324645287852597,0.44798618601379,0.541515501879219,0.31168983957488,0.459219244149899,0.335253222773134,0.336042176541054,0.730651926893015,0.552247696580705,0.397377689061972,0.526462142453075,0.601468313080632
-160,cane,12m,FC,Trial1,0.608525282045339,0.588141340329637,0.443726648917545,0.512356135882424,0.855429131135333,0.580848973060247,0.371746309607687,0.329440643223809,0.43259933638791,0.528605801603191,0.317202158551859,0.482770121163813,0.321088159690416,0.336261620716064,0.743362207843456,0.564561238832534,0.393503170117136,0.518327949048307,0.595791976805629
-150,cane,12m,FC,Trial1,0.609637304654572,0.598700045270215,0.440094661983967,0.543840872447106,0.856267080724589,0.580358526620045,0.378422804964174,0.334289794907109,0.41851243029523,0.518033522949045,0.324283814162671,0.506666696877461,0.308182823991413,0.333727904832915,0.755351745741439,0.576785729385473,0.396400212652505,0.51319834931869,0.585284246659907
-140,cane,12m,FC,Trial1,0.609406239732322,0.610508880298758,0.441088519333444,0.573624911689557,0.854199366142281,0.579347525030292,0.385976556759541,0.338581401582183,0.406012127257792,0.509478113563886,0.331866921166274,0.530571455655487,0.30027081851401,0.330315335098394,0.766461334371709,0.588734491289831,0.406526561747343,0.511464692689592,0.567861091777321
-130,cane,12m,FC,Trial1,0.608365675106495,0.623595404742279,0.449308325524824,0.599712761528982,0.849319855423679,0.578799143234588,0.393949522425094,0.341935837957892,0.395014256751387,0.501513046242433,0.340336971932385,0.553638006113697,0.296019227319346,0.33133816991189,0.776665547194992,0.600399526005305,0.421505195752216,0.512003116596925,0.546823875711789
-120,cane,12m,FC,Trial1,0.606827718044715,0.638473686371938,0.46156796817153,0.621041892361231,0.841790309682619,0.579753377289201,0.402082003770838,0.34236278173686,0.385433369708954,0.493984811541762,0.349403579618276,0.575486486850305,0.294537580503173,0.339453704319385,0.783850876973841,0.612117379639781,0.439352755847924,0.509961499518327,0.52450736581728
-110,cane,12m,FC,Trial1,0.604952782242472,0.654627418048172,0.473993735454437,0.639572489062477,0.831873892859618,0.582242072438767,0.410043059847059,0.33998635410405,0.377326785578777,0.485295975039651,0.35837866813165,0.595920103744244,0.294834678206963,0.352386296156861,0.788468087222521,0.624569272644897,0.457902771932495,0.50740623824361,0.501075824389745
-100,cane,12m,FC,Trial1,0.60279709727983,0.67059175571076,0.481549614628788,0.654624951249749,0.819889195396705,0.586412057777904,0.417510782772033,0.33647419545614,0.370641636698374,0.477850316292178,0.367995879125292,0.612890992241382,0.296839602299578,0.367511331556837,0.79246916202917,0.6400811392438,0.47586226700679,0.508780899710355,0.47982710939715
-90,cane,12m,FC,Trial1,0.600344997821436,0.685543215406213,0.484594513271718,0.664583344135458,0.806162496776243,0.590172914565854,0.424302928679575,0.332599095086148,0.365122494541165,0.4717655361001,0.37575334037052,0.627138028902349,0.3012390922319,0.383384299612686,0.796542625383143,0.657991744169273,0.492008842595746,0.510443355341908,0.461336461446092
-80,cane,12m,FC,Trial1,0.597543247108347,0.698689351791415,0.484386203714185,0.666653795781996,0.790995373812835,0.591980111724184,0.430126244405094,0.328225080914603,0.360330629469647,0.465882423990651,0.378597088151747,0.639534886438996,0.308854390417369,0.398974553066583,0.800925803336591,0.675368373883776,0.506376131307985,0.512551856543888,0.445299511921873
-70,cane,12m,FC,Trial1,0.594344610516985,0.707221112509174,0.481109545100082,0.665093424316451,0.774645644726307,0.591811238881848,0.434698524764404,0.325358133719509,0.355029907325235,0.460262962525321,0.374577826069321,0.648025830811453,0.319955080422083,0.41375645465361,0.805655998696237,0.691063405284732,0.519023492417885,0.515631357350594,0.431568400191689
-60,cane,12m,FC,Trial1,0.590754551736161,0.710432693673361,0.474492514909137,0.661144365804945,0.757331073208866,0.588646056553943,0.437156626707283,0.322884602278469,0.350305576540542,0.455149719989257,0.363461208612169,0.651307290675627,0.335396960964061,0.429273170318574,0.810618766739158,0.702143481928879,0.529946033143972,0.52030815494387,0.420250885091044
-50,cane,12m,FC,Trial1,0.586904904987634,0.709505482169959,0.464658419507744,0.655299500536446,0.739272453148294,0.58337862402695,0.436892286050885,0.320683319513753,0.347138702592775,0.451049993117904,0.349895296258195,0.651361532466602,0.352907005335016,0.446765386960517,0.815596473991391,0.708307982570438,0.538992268070636,0.52683055916098,0.411848757590147
-40,cane,12m,FC,Trial1,0.583252900667541,0.705502569814607,0.452241563316826,0.646982003329039,0.720776015384289,0.575981394687584,0.434515294554126,0.319270455139503,0.344461966748302,0.448698719691194,0.337759883953233,0.649859743421863,0.371078920848653,0.465856307041623,0.820336644217524,0.710696117194226,0.546162808582977,0.534213400696509,0.407113599745134
-30,cane,12m,FC,Trial1,0.580447325723693,0.69898177646837,0.440014783399514,0.634723007894483,0.702269888039998,0.566052339685868,0.430739908606846,0.318720499673931,0.341346182749594,0.448609668963679,0.327751842613521,0.64540188909415,0.388824308914114,0.48494970041722,0.824616614527854,0.708377808459557,0.550129199847367,0.543834433723556,0.406820526237038
-20,cane,12m,FC,Trial1,0.57874777877383,0.69014015027807,0.431821693772307,0.620152691869799,0.684238580075311,0.55271475643241,0.425860621258543,0.319817561460574,0.337669416372671,0.450429781969688,0.321397881701135,0.641194376946526,0.405993508262068,0.501623468317342,0.828283135305601,0.700300192376909,0.551803227924193,0.556081881133344,0.409892961288228
-10,cane,12m,FC,Trial1,0.577833874462265,0.679113376185522,0.425243098442979,0.604821707569654,0.668698191000473,0.536380551296778,0.41830230972496,0.324666015338469,0.333624712356911,0.455433414753331,0.317768125066361,0.638057640198595,0.421167615204804,0.510215843351145,0.831256483026735,0.690793968315106,0.551834406564672,0.570780411620344,0.412238993812739
0,cane,12m,FC,Trial1,0.576860912541631,0.666601983841457,0.420781747072747,0.589211360648719,0.656211384545057,0.519703609802948,0.408238951454346,0.334684495346225,0.328757523380901,0.46280249510388,0.315870220978843,0.634654309901344,0.437747025584308,0.512411650795337,0.833492827159488,0.68037976468547,0.549846193454273,0.587372524176138,0.412337078571994
10,cane,12m,FC,Trial1,0.573687603787406,0.652355155892451,0.417343871558073,0.574439083982896,0.645975818190137,0.504309260107802,0.397744001200103,0.347859010297709,0.323418747863039,0.47054409215086,0.317973838478829,0.632359430976546,0.454201807631188,0.511441687218073,0.834915361936375,0.669637992259772,0.547916481679107,0.605343427795074,0.410013557502729
20,cane,12m,FC,Trial1,0.570689581300687,0.637065145176063,0.420976437120229,0.561146349610526,0.637474309033865,0.491272874183122,0.387448557887524,0.359351592477745,0.320344413421801,0.479289405023904,0.320050381756416,0.631586012788345,0.470622648352668,0.508394471182114,0.835374946363593,0.658593199602625,0.546350938538163,0.624177513976518,0.404375841354517
30,cane,12m,FC,Trial1,0.568565450767572,0.621216194116614,0.428677646429513,0.550196554297471,0.630559980229097,0.481946758154607,0.377603850615842,0.372364150695657,0.319550438038722,0.489045868345168,0.320744707087923,0.632301600727386,0.48672566822399,0.505287083417367,0.834681441060004,0.646513522807513,0.545313671441729,0.643390320698345,0.395248688655116
40,cane,12m,FC,Trial1,0.56773785602503,0.605244616706191,0.441712302461837,0.54276778994381,0.62522022434634,0.476807650037071,0.369012511157137,0.384548728614281,0.322936060476139,0.499442233818594,0.320092200394416,0.634463935122669,0.500863217629701,0.500897888208709,0.83266178684353,0.633480276226436,0.54399546497628,0.662335710024439,0.386413510360181
50,cane,12m,FC,Trial1,0.568444584212002,0.589550413410788,0.458357732017426,0.540359814341817,0.621472540190528,0.475692329697895,0.362340677856279,0.394855442091701,0.329690059743017,0.510070370472431,0.318352473187622,0.637860171427123,0.511019028079457,0.496054801523858,0.8286334573107,0.619967871317202,0.542091364004236,0.679772412544488,0.378940716189944
60,cane,12m,FC,Trial1,0.570878374369822,0.573764498405016,0.477109025529831,0.542983553305347,0.619248493744826,0.479996421190162,0.357841633652722,0.405161749896538,0.337447630774143,0.520513139106723,0.315921603292972,0.641919842391443,0.515323524737305,0.490692197332955,0.821492228318088,0.606549107264795,0.53996716101161,0.694860024171669,0.373667875595531
70,cane,12m,FC,Trial1,0.575986803973889,0.556613400750526,0.497395392978016,0.54879590123513,0.618172275341093,0.488132894933099,0.355274550379127,0.415114666210582,0.345723594421057,0.53033727628227,0.31335384745847,0.645899830937713,0.515723018213504,0.484708157136543,0.812199059993418,0.592203235553671,0.537794228232392,0.706584623360806,0.370919724115086
80,cane,12m,FC,Trial1,0.58580694013054,0.539909967146928,0.519125081045441,0.556470517434131,0.617567061478101,0.500059958980402,0.353695695246564,0.424480074380143,0.353280303256271,0.539066589339518,0.311481604418608,0.649330576024228,0.513623549186325,0.478113730893729,0.800780618528665,0.575063947269313,0.535542575746605,0.713089214185983,0.370705953588257
90,cane,12m,FC,Trial1,0.59834193643817,0.525342620359218,0.542249629018357,0.565370116253122,0.617193144694199,0.513857004053726,0.351616882737241,0.433073919784938,0.35977398260972,0.546132618687838,0.311543371932926,0.652779828023349,0.509798294924096,0.471014931023848,0.787783801728343,0.557068933745338,0.533274078636158,0.716351723680219,0.372950187409311
100,cane,12m,FC,Trial1,0.608423810981456,0.513195466444249,0.565945106546407,0.575112447149855,0.617059034953108,0.52944132509576,0.347921093893836,0.440808035219282,0.365442665524397,0.550191779932234,0.314683065101462,0.65437513558458,0.506292206381335,0.463626167940403,0.773430646936354,0.539534816099841,0.531244867666691,0.71692919650857,0.37748719097268
110,cane,12m,FC,Trial1,0.616156119792241,0.504251359766729,0.588654938674623,0.585427193507896,0.616774919742902,0.546233801671087,0.343672722275656,0.447597915700651,0.370511401304,0.548614465471748,0.322266580132839,0.65524119948764,0.50217635564658,0.456468328722053,0.759926946840495,0.523386276240159,0.529898178237756,0.715534523407773,0.384763576665464
120,cane,12m,FC,Trial1,0.622153588133968,0.500770636082263,0.606961594864193,0.596073923256673,0.61591601775973,0.56381313145022,0.341934747429774,0.453227926541526,0.375829319541293,0.542157644806656,0.33529617484978,0.655495324838628,0.497402021086274,0.451878636573552,0.746440748672052,0.51145641656294,0.528173023528555,0.712332277802266,0.394818393934013
130,cane,12m,FC,Trial1,0.626895971717185,0.501207303224081,0.617198325226616,0.606674626533884,0.614018453646326,0.581608424565756,0.340668580701276,0.457330708206281,0.38494385187849,0.532616731086941,0.346690763538776,0.655383459122743,0.493866786666824,0.452548824373046,0.733533839603756,0.507095847424431,0.526438620549772,0.707457094143247,0.405861666238147
140,cane,12m,FC,Trial1,0.631226609657543,0.503063059289118,0.622381458879864,0.617316031854006,0.609161385083926,0.598564979170538,0.335810663421117,0.459424088350563,0.398477037046028,0.528397589711371,0.355751067305495,0.655150392584436,0.49218459192991,0.457342516555777,0.721951057726885,0.506852073631092,0.525935363828022,0.70192931588105,0.416855031276147
150,cane,12m,FC,Trial1,0.638190249559052,0.50530737119271,0.62442958479774,0.626316617615817,0.600490943865163,0.611570434921879,0.328411540509813,0.460172047411777,0.415858232000269,0.528647586977425,0.362597540460572,0.655323933292795,0.493437839194731,0.465027776953977,0.712022399215542,0.51087993053498,0.52663965194637,0.696480482918388,0.428322648304966
160,cane,12m,FC,Trial1,0.648605856900287,0.509161564771058,0.623896955353955,0.634715509935609,0.59034179039904,0.62051920989296,0.319184832849943,0.457905873711778,0.437624626088096,0.533773869836979,0.367368639663175,0.656657030238772,0.496999137736342,0.474802721865812,0.703874144249966,0.517120427302446,0.528350115598927,0.691414430314172,0.43969031173596
170,cane,12m,FC,Trial1,0.661736419369466,0.514264608819103,0.619318275534273,0.642568912588155,0.579787161997166,0.627173297774815,0.308976442329583,0.45105503675195,0.46334025466372,0.538984879370933,0.369327035333815,0.659752542289605,0.501061726577864,0.486201333849263,0.697093600599341,0.524193982986848,0.53495496618927,0.685615672660059,0.450332788254352
180,cane,12m,FC,Trial1,0.676710732275601,0.520288366107136,0.611619080270313,0.650104613485878,0.569348473696265,0.631811333644067,0.298973612042407,0.441916684995126,0.489255529259962,0.544453299894496,0.369286286383363,0.664816466614022,0.502168037450703,0.498811737072021,0.690996360597421,0.531725919733513,0.543896220293404,0.678605769559498,0.459577108665614
190,cane,12m,FC,Trial1,0.691393500122128,0.526317045236329,0.601555471134244,0.657469712378543,0.55925051854982,0.634370365479455,0.28959100696559,0.431714033508246,0.514216687752632,0.551222858752251,0.369645580535692,0.671014331579694,0.501119045645074,0.512091292524002,0.685159324144157,0.53979143561225,0.553904113334507,0.669895015310221,0.46661807814782
200,cane,12m,FC,Trial1,0.705730687545906,0.531441752278245,0.589715576108931,0.664407831430869,0.549513243493934,0.634812245311735,0.28078434224732,0.4209657326275,0.537285572538883,0.560449316538162,0.371183525837855,0.678976099982846,0.50112517879784,0.525259676572991,0.679633426709795,0.553486394559327,0.566546927288183,0.656623877322233,0.470206906418733
210,cane,12m,FC,Trial1,0.719534666807782,0.536279955934088,0.576952995367992,0.67111512973767,0.540006115441338,0.633757302122624,0.272962535964334,0.40952207482732,0.556642568193114,0.57115400205479,0.37232381226243,0.687566622582463,0.502447300100739,0.537538179456292,0.673932174902293,0.568528368177641,0.582276791733366,0.637070162230943,0.468243745314359
220,cane,12m,FC,Trial1,0.729584256987473,0.54115940040497,0.564215195200249,0.677068642476557,0.530492326153753,0.632179175590517,0.265519358741771,0.400487097772789,0.570924727533317,0.582447512777488,0.372486832098428,0.696517893481182,0.505517474883538,0.548286037410023,0.667869001492431,0.582864985778109,0.600843830183216,0.613083988306229,0.462349832885783
230,cane,12m,FC,Trial1,0.734715015111173,0.546060394739564,0.552922290676588,0.679792811176081,0.520667730658658,0.630792894188865,0.2573859136517,0.399206485103451,0.580883973276548,0.594013872989441,0.37036877034836,0.70434219459026,0.51107996340164,0.558414835918519,0.662891870916779,0.595438182993919,0.62161990753968,0.585923848907456,0.454540710657109
240,cane,12m,FC,Trial1,0.734524542161705,0.550680830634893,0.545034620743892,0.678278461444125,0.510167965481685,0.630146015328547,0.249508616954116,0.405765657155836,0.584314145778766,0.60565586407878,0.364489910463076,0.708323867223878,0.518032437893672,0.567600763458083,0.659669888861873,0.606061542309282,0.643681286569573,0.557244698334173,0.451129504545188
250,cane,12m,FC,Trial1,0.727896312082406,0.55498192194118,0.541963207765094,0.673107379345129,0.498540931571731,0.630658453397409,0.242383562209117,0.414917031566507,0.583111209959849,0.617186207241936,0.35796278692579,0.707403321101118,0.52602192814726,0.574770850641228,0.657794908231565,0.614493865333832,0.666673839843443,0.526339076811786,0.451364672553394
260,cane,12m,FC,Trial1,0.718562540275595,0.559215919066418,0.545322965339929,0.665442830493144,0.485017592569073,0.632545147993207,0.236348801479621,0.423832060353705,0.578139518117638,0.628604181394792,0.352835866493159,0.7008630053162,0.534550375714656,0.579632162545111,0.657015998638115,0.619739473761574,0.688213466370935,0.495113732869152,0.45357358456119
270,cane,12m,FC,Trial1,0.708793538098302,0.563712330127096,0.555270845807914,0.655947058952568,0.467221604837501,0.635857451957232,0.23167695156106,0.43315231815349,0.569726210408717,0.641665157478342,0.34763579186045,0.68899956125524,0.543106737979409,0.582325989302543,0.657326846506406,0.61949545799414,0.707232281655199,0.46492545693524,0.456715902068253
280,cane,12m,FC,Trial1,0.699770144251691,0.568913430116019,0.569139839828382,0.645837990234167,0.445853085421086,0.640882389181226,0.230461146675371,0.442891923757063,0.558097260438613,0.656230796222664,0.344045992914572,0.67314695257403,0.551190870006122,0.583837108908768,0.658730647877349,0.617109225590395,0.722995448065655,0.436932583260099,0.45935111591439
290,cane,12m,FC,Trial1,0.692145231062677,0.575885270193633,0.583537219645401,0.638177099927674,0.422076501623897,0.649046656106291,0.232811381431163,0.452971557835178,0.544053545426004,0.669587835450816,0.342451378642151,0.652890122610321,0.558298906622286,0.5844675985452,0.661189984905455,0.613579899395566,0.73489784605353,0.41057552340613,0.462293382458389
300,cane,12m,FC,Trial1,0.68583158763914,0.584953098925878,0.597317428936349,0.631879320622366,0.397171450238103,0.662318411855973,0.238291605212626,0.462053972896519,0.526330310141052,0.681026125227085,0.341920071893757,0.629596614644843,0.564413759145715,0.584438918537161,0.664655137647456,0.609632863465065,0.742470063160842,0.385520015553092,0.467558703457046
310,cane,12m,FC,Trial1,0.68020988450173,0.595547961377972,0.606742898399839,0.626868910299784,0.37284684479691,0.678266094184665,0.246167757543423,0.468798108094012,0.506729955850915,0.689473818404994,0.342254562346112,0.60327681021638,0.570400279218791,0.583860823184873,0.669084357375771,0.605673249793227,0.745679097962311,0.363815829704069,0.475032070512884
320,cane,12m,FC,Trial1,0.67487238203961,0.607192113727697,0.608141984151492,0.622452869535116,0.34977912963076,0.693371759759285,0.256313329288736,0.475822478030999,0.486904467029383,0.693596068515383,0.342741547426396,0.576183378377052,0.576193039663422,0.582758118096961,0.674421421834531,0.601982254955515,0.744363027534996,0.349642062659838,0.482483597637939
330,cane,12m,FC,Trial1,0.669766984751859,0.618488760889675,0.603967334297573,0.618424251937143,0.328718242536408,0.704889619879688,0.271188148459959,0.483679423647033,0.468048988341901,0.695394338925625,0.344301615288258,0.548951704480626,0.581752363100971,0.5811521035975,0.680536309843904,0.598826968599593,0.738435618226054,0.34288122076664,0.488843623393343
340,cane,12m,FC,Trial1,0.66516887127344,0.62592341218042,0.595952586362923,0.615494144763643,0.311630696594569,0.713227346723605,0.290601848003362,0.493716294860546,0.450008683488843,0.696592692614508,0.347564431862899,0.522015719170249,0.588247438472392,0.579159809192559,0.686957119557035,0.596512765501629,0.730245917573689,0.340566416315227,0.493330981903498
350,cane,12m,FC,Trial1,0.661654224791662,0.62913572452376,0.585414505056978,0.613690568824732,0.299429776098133,0.71882923862928,0.316938636919016,0.506638332090026,0.433784522609354,0.698041428577846,0.352548093698929,0.495708208566139,0.596414062643991,0.577292281762665,0.691986752238372,0.59538452203782,0.722162419970535,0.341113599868969,0.495015117921207
360,cane,12m,FC,Trial1,0.659814416380547,0.628959507888766,0.571888718521456,0.612967600979386,0.293004343150212,0.720723287105302,0.34810984440353,0.523014627685794,0.420203711115456,0.699703660902257,0.358921196544904,0.470431641437339,0.606054115116686,0.576490635570653,0.693677652604956,0.595750613147135,0.716294440512793,0.345037143586573,0.492416082868206
370,cane,12m,FC,Trial1,0.659722092368132,0.626050794471387,0.55500822831851,0.613243035713751,0.296093654457469,0.718408926697503,0.379871711552228,0.541193235259311,0.409372697287101,0.700930940753613,0.365779735624502,0.446771811947403,0.615720216989516,0.578765844399408,0.692802343804079,0.597719785646189,0.71126319761961,0.352672212645325,0.485121765101268
380,cane,12m,FC,Trial1,0.661105114871783,0.619295201581861,0.53625341782394,0.614394734815087,0.304815190244821,0.714510293465063,0.410703263000137,0.560204736523818,0.402090063156309,0.700237912571424,0.371495662528883,0.425352321764095,0.625131442216579,0.58627130637341,0.69029068502204,0.6008461750135,0.704808579669477,0.362160418049671,0.476386412507753
390,cane,12m,FC,Trial1,0.66366942409986,0.610757646467707,0.517647432521097,0.616256259988783,0.31673478732924,0.710492814931652,0.439175895715494,0.579707356893758,0.39963088274338,0.695652541191922,0.373944350019433,0.406399405532437,0.634708506851424,0.597870551603815,0.686404102656715,0.603628989216049,0.697987175837373,0.372290601394228,0.46930987535399
400,cane,12m,FC,Trial1,0.666834747001183,0.602165286408731,0.501105029110112,0.618664675565006,0.330701417050442,0.707674444458258,0.463083106349516,0.599969191051834,0.401602834016416,0.688033302948416,0.373029070457073,0.389805733579772,0.643846159934401,0.611372549122574,0.681108633411354,0.602259662800795,0.691754358055773,0.382116130365957,0.463089263008677
410,cane,12m,FC,Trial1,0.669049365901859,0.594067848269177,0.48714954317788,0.621429188908097,0.345762704134343,0.707885776913364,0.47942461967079,0.61869992222528,0.407131284072396,0.678732815554089,0.367933045963981,0.37554574046524,0.65188919288758,0.625405550729694,0.673542082786431,0.596699083113754,0.686671088998207,0.390467467892369,0.457762529421986
420,cane,12m,FC,Trial1,0.666961991293974,0.586634977708123,0.474538839969844,0.623917642378415,0.361093417969776,0.710191587027549,0.490413905380576,0.63877295350119,0.415220262419073,0.668640133307797,0.35881446359948,0.364119715248498,0.658153251939204,0.640695159222115,0.664134971120396,0.588019864699775,0.682852545404719,0.398120159843511,0.450314897414224
430,cane,12m,FC,Trial1,0.658922061587745,0.57939268328597,0.465384754539577,0.629546552532162,0.37581618297673,0.713790018616896,0.499353007595038,0.658556998346904,0.424683769469537,0.658189579282699,0.347584535032409,0.357096161674578,0.661194218205984,0.656086381879895,0.653642569486242,0.577468306431963,0.680072762174357,0.405366826843814,0.43806728251631
440,cane,12m,FC,Trial1,0.649496849819867,0.570914008757569,0.460448821505614,0.639212393740613,0.389168704090872,0.718091781677163,0.506195856967149,0.676968515407654,0.433182437033125,0.647596224234723,0.334743803800491,0.353996028172909,0.661392338087165,0.66763616388078,0.642435588826202,0.565121217165902,0.678806580630627,0.411382234210068,0.42346279713182
450,cane,12m,FC,Trial1,0.640859001634085,0.561094423225675,0.459246058862809,0.65025728288747,0.400508749710793,0.7226821552394,0.51055649259907,0.691769948745842,0.442524771154431,0.636640733187047,0.322017578031577,0.354028695919154,0.659838015129854,0.673435846842421,0.630858412408809,0.548405637213838,0.680576965421343,0.417530960809773,0.407405221764273
460,cane,12m,FC,Trial1,0.633837938325395,0.548260276489659,0.461254346221875,0.662088934276387,0.409739658131315,0.726950680228332,0.513040473468618,0.698957446576348,0.453163864060957,0.625799846754621,0.312278745428147,0.355829045376206,0.656433038338705,0.679706866143081,0.619401862336502,0.529345988278651,0.682869534732014,0.425191225237465,0.390796903978888
470,cane,12m,FC,Trial1,0.628993462121599,0.533373814821079,0.465997741932998,0.674423068654639,0.41799839358282,0.731852745139685,0.51426606084412,0.699920879429664,0.466052617348094,0.614779936782577,0.304627971066812,0.357936977781269,0.650518947358053,0.687661044592307,0.608758665574664,0.509647579627851,0.683261137877894,0.4329492905098,0.374821533194741
480,cane,12m,FC,Trial1,0.625864133514851,0.518450141475948,0.472297503359768,0.687121703227347,0.426770607735555,0.735090692686376,0.514686565120988,0.695437018985857,0.480577223081363,0.604251541003511,0.299125499836093,0.359873272888137,0.640664200629689,0.697255238994837,0.600161990126027,0.489524469979075,0.677709838480326,0.440805121631425,0.359256055123619
490,cane,12m,FC,Trial1,0.624106384100649,0.503476581985057,0.479911685681262,0.700132281547065,0.436801949019139,0.735687790043974,0.516095869802155,0.686964508858404,0.495559566541364,0.598510878755828,0.296189758178219,0.361844644560358,0.628268075049482,0.708139172351821,0.593952786689502,0.46923681445221,0.668281414681407,0.44877051020212,0.343243622614648
500,cane,12m,FC,Trial1,0.625181299646124,0.490888845237215,0.483987764543948,0.71348854129945,0.445618106853199,0.735504369484611,0.517301733296465,0.674859475523059,0.510389171215536,0.599935293908049,0.299062733238131,0.363917911207575,0.615715572005953,0.718016680867516,0.589998548261213,0.449609252687655,0.657163594081928,0.456720918675949,0.324201704122277
510,cane,12m,FC,Trial1,0.627895123305865,0.479767750030211,0.485174786196898,0.727228679316232,0.452933874506412,0.733962302709587,0.518540037142552,0.660456602691425,0.524595955708521,0.607103387449464,0.309404648572925,0.365010927669448,0.603864766836872,0.727216272583033,0.588000743793197,0.429384540165671,0.645354838900198,0.46408639009415,0.306712829680379
520,cane,12m,FC,Trial1,0.631498137422921,0.469124515372607,0.484278451308936,0.741989413605731,0.456828343455459,0.731904036825478,0.518650766141944,0.644569356496924,0.537244835129161,0.617746806018187,0.326854102246662,0.365601605728237,0.593603442427153,0.736143077828294,0.587925200606971,0.408954242537869,0.633351126583406,0.469943827992815,0.292632287333188
530,cane,12m,FC,Trial1,0.633975803044606,0.459902487363798,0.480486738939315,0.758030985390854,0.457079758053076,0.729402913432986,0.519091499300692,0.627277890024343,0.547710355349491,0.629438969587406,0.349026412741164,0.36668279323908,0.588295117599224,0.744286056315932,0.587797328439492,0.388927924052333,0.621542812638655,0.473786865608678,0.282160930868226
540,cane,12m,FC,Trial1,0.633776898250287,0.452155565149232,0.478686201738959,0.774730776301452,0.456788510822477,0.726256914955639,0.517789354480255,0.608838139968019,0.555414832809863,0.640372808386031,0.372584535613664,0.368050635078436,0.589908642512854,0.751363907464892,0.586097998582748,0.370251472146416,0.610312287073579,0.475850524317574,0.277013012258889
550,cane,12m,FC,Trial1,0.63054288809051,0.446209393188619,0.482422169074748,0.791868923410784,0.457486920845048,0.721346910624943,0.514436547995823,0.589858140437443,0.561310989134831,0.649469923925941,0.394798597360147,0.369361577607207,0.595311458529996,0.757207335849551,0.582522532931619,0.35347852665087,0.600058295947475,0.474843297964872,0.278715686594338
560,cane,12m,FC,Trial1,0.624640441567006,0.437903016929415,0.489315627363186,0.809294248664984,0.45929590778621,0.71525365590942,0.507929906974767,0.570766466290094,0.566467679629815,0.656365183558231,0.416355437659007,0.371176249777643,0.604991578691284,0.761884357613715,0.577021487902504,0.338792835846634,0.591140183918118,0.473090642599661,0.286048392339238
570,cane,12m,FC,Trial1,0.617004458325584,0.430226903877755,0.497513979631172,0.826777161381302,0.461043280949086,0.707950600985957,0.498536930954728,0.55181163716144,0.57132006974266,0.661066791967144,0.436083463255897,0.373923470333863,0.617564195716481,0.765648306415288,0.569551955566136,0.324918815059347,0.583710522129206,0.471132301735118,0.296985131545229
580,cane,12m,FC,Trial1,0.607787633797752,0.426045433314933,0.505234533132384,0.843933821065412,0.461215343177727,0.698435603236109,0.484814824963286,0.533377299676809,0.576179815605682,0.664242200701727,0.454324546364949,0.378002254039651,0.634122439457168,0.768591370727367,0.560115266268721,0.312296171847339,0.57766047566172,0.46966275545849,0.310553014676873
590,cane,12m,FC,Trial1,0.597264319762588,0.430488244706116,0.513092218027452,0.860165134033145,0.457998662924776,0.687614334324304,0.466360244246847,0.516937244515647,0.581617938806971,0.667184868454373,0.471146220002869,0.384227229397098,0.651902835846095,0.770235201812405,0.548889968996279,0.301246620119894,0.572877337289868,0.46955135216959,0.325193134447854
600,cane,12m,FC,Trial1,0.585644390458828,0.440043963337808,0.520936286171584,0.874562788874524,0.453802683537328,0.675971427906621,0.444815051124209,0.503535113189268,0.588280833478651,0.669364596359438,0.485592578138429,0.392266272628266,0.669041626312828,0.769422469634427,0.536285202214519,0.291778598217088,0.569280908322711,0.471892121474098,0.342619803498026
610,cane,12m,FC,Trial1,0.573109471478561,0.453035193419547,0.528820874614607,0.886145042840718,0.448854447843968,0.663532550784023,0.422191998106723,0.495894010400131,0.596705740708764,0.670331201643831,0.495889819474483,0.403177398690514,0.685991764072625,0.765327806460432,0.522835070793363,0.28393440094983,0.566701092889489,0.477201228908143,0.361710565062626
620,cane,12m,FC,Trial1,0.559934709094106,0.468849376215887,0.536624285684383,0.891437427726179,0.443584627436309,0.651967231452809,0.400163180121045,0.49519083965936,0.606929689218096,0.670386620957506,0.502836452549877,0.416068001458665,0.702995459592719,0.758752532250529,0.509068902853378,0.27788762147964,0.564827527192895,0.484512532448413,0.377421151473867
630,cane,12m,FC,Trial1,0.546804508588368,0.487385062047352,0.542043735251513,0.892067795071496,0.438485081522846,0.641131361335562,0.37940433899078,0.500260078383492,0.619034835717962,0.669706846214041,0.508153895794419,0.428278624320806,0.719835565913254,0.750656183051043,0.495518476499244,0.274208774748062,0.563142121107088,0.492116573619907,0.388370050402415
640,cane,12m,FC,Trial1,0.535096519582709,0.508686862142586,0.542650562762454,0.889663974530195,0.434023193944986,0.630436000214329,0.360720997454621,0.508712020597343,0.633854633150854,0.666287862613478,0.51254175944669,0.440574258379319,0.736373026373109,0.741762968846393,0.482777549817202,0.275988644116875,0.560743637928879,0.49857013484519,0.394173932808713
650,cane,12m,FC,Trial1,0.526683462169448,0.532455548360374,0.538157887137168,0.885214057553231,0.430646653722506,0.619734114114026,0.345587472830206,0.518655511711609,0.651114360383796,0.660489321278632,0.516238046251639,0.452642585805898,0.752468618101942,0.733167534324716,0.471455261171384,0.28271124464498,0.55607469547452,0.504079549352919,0.396464094105029
660,cane,12m,FC,Trial1,0.523180908624468,0.558000721086225,0.529469952417546,0.879376390599624,0.428698481793272,0.609130558564876,0.335537955736136,0.52824191060699,0.670080150873387,0.653135225009311,0.520066880312351,0.464313236064669,0.767927063172413,0.726215566851041,0.462093265371372,0.29372610574782,0.547769509659553,0.508923242584101,0.400197729295723
670,cane,12m,FC,Trial1,0.525294294641783,0.584480467918097,0.520293430183473,0.870829601050695,0.428325003983737,0.598080197085687,0.331837142562721,0.536832461483753,0.689976990422958,0.646318309832796,0.521806401911174,0.475004026029929,0.782449463412805,0.723194333716272,0.45725873185759,0.309533604253464,0.536214374946252,0.513294516580988,0.405573265337716
680,cane,12m,FC,Trial1,0.532538968350189,0.610433784553281,0.508701438842348,0.859275325531865,0.429545119427404,0.585958631653998,0.33421896535805,0.544334621523628,0.710099413215645,0.640442733628974,0.522808693984398,0.482778801750075,0.795520828112576,0.722219622009651,0.462747020214451,0.336358613650052,0.522341138401909,0.514737729545195,0.412335120865683
690,cane,12m,FC,Trial1,0.536276266915776,0.632679087725757,0.495796649155228,0.846469088559839,0.433497996400762,0.57462023287298,0.339821171683724,0.550652693778174,0.729786341973598,0.635157446061655,0.523173634493326,0.488222532640622,0.805816150798089,0.722441141781087,0.47569315068145,0.366099015162059,0.506787286214138,0.515939906105814,0.420485476584981
700,cane,12m,FC,Trial1,0.530865077741596,0.652248534478462,0.482260075426116,0.833187794145334,0.438371233223684,0.564740882512998,0.345594162642674,0.55568869256991,0.748415323407144,0.631686842322481,0.523239183486211,0.488813650266594,0.812122659507584,0.723409744120157,0.49150442688879,0.395124677741452,0.491189761911481,0.519785574724734,0.430640565724157
710,cane,12m,FC,Trial1,0.515373943354441,0.669308477250217,0.468415416082556,0.818935852450541,0.44404502746397,0.556371213679286,0.350041522592369,0.559337284462895,0.76540057183903,0.628331400375854,0.522682210511716,0.485215587114853,0.815116019036899,0.724778509330915,0.509778546936744,0.423493093555614,0.476068405195214,0.522161495803619,0.442975549469939
720,cane,12m,FC,Trial1,0.490705022888782,0.683707083721807,0.454362997279,0.804369770041815,0.449847687173661,0.54935739663964,0.352471614759052,0.561492989308987,0.780203538415865,0.623087570510863,0.521065644925131,0.476977121300148,0.811593326227851,0.726243778752577,0.530145548391544,0.451105983900954,0.462760490028934,0.522855389091467,0.45644773494155
730,cane,12m,FC,Trial1,0.460401653136751,0.694446826426035,0.440083135886372,0.7885511798013,0.455429724267205,0.543624407553782,0.352398419621589,0.562093730690245,0.792469798899702,0.616115179988496,0.517808881925199,0.465245689702147,0.802297840838301,0.727543988440986,0.55220300072075,0.478227600203863,0.452542750144491,0.522251155976996,0.470816164028935
740,cane,12m,FC,Trial1,0.428872641791576,0.699923732949243,0.425950020234742,0.771118056450045,0.461826353658362,0.538921026969365,0.349751074716987,0.561214666958037,0.80132504087783,0.607277238565754,0.512422681089014,0.451165646334267,0.788441749213376,0.728487720472398,0.575493247659745,0.505161687701208,0.445882534982134,0.521727190698354,0.486100753811862
750,cane,12m,FC,Trial1,0.398072760325018,0.702318491162162,0.412367785515668,0.75226494046511,0.469855853585311,0.534440734637937,0.344788703943397,0.559113055793667,0.808380418945712,0.596392945069107,0.504694932929487,0.435721005658835,0.770353967168164,0.728934616005449,0.59948709065198,0.532252626705325,0.442711244074923,0.521139770992537,0.502517504811042
760,cane,12m,FC,Trial1,0.369573996510916,0.702658816485306,0.397894907255724,0.729009796529764,0.479888911615456,0.52778698457252,0.33794893258541,0.556043165883987,0.813375908695896,0.583161697724258,0.495127096824087,0.4199980046949,0.748597669821585,0.728743346789199,0.623569413749833,0.559887357659407,0.442815616733664,0.519438359416672,0.520053892936198
770,cane,12m,FC,Trial1,0.345263818856117,0.700182626616733,0.382250860894478,0.704880216187804,0.491772743941788,0.517409019896322,0.329707458696038,0.552347763250402,0.814541840537352,0.566808455682732,0.483163321342756,0.405105600753294,0.724143010251301,0.727703748190971,0.647027830253001,0.587257483806895,0.445941501926765,0.516722224542812,0.538354584373102
780,cane,12m,FC,Trial1,0.326806225448514,0.69614812455642,0.367110289041508,0.680232599448766,0.505110926410564,0.503764289107433,0.320544372499254,0.549044472667631,0.814294037089985,0.546077279937252,0.471214576375882,0.391776006538131,0.697973631341363,0.725545833984516,0.669052345365019,0.613238307389412,0.451810476469324,0.513202040498132,0.556673050852701
790,cane,12m,FC,Trial1,0.31403759682993,0.691656472810673,0.352588821115526,0.655549821586743,0.51953838290739,0.488064425133456,0.311019951635991,0.546909353969393,0.813589871036069,0.523842626843905,0.461361553244723,0.380315038091181,0.671044180589442,0.722171950716239,0.688740466673235,0.638229911876886,0.460122614965853,0.509151436240743,0.574355030113078
800,cane,12m,FC,Trial1,0.306411976988849,0.687585850438509,0.338605384765268,0.631354789792525,0.534810206461413,0.472180123031824,0.3018355731328,0.545954258884112,0.812731823862508,0.501044162692361,0.45523807521862,0.371194632034944,0.6446177549513,0.717785634142706,0.705076767448652,0.662071460775577,0.470519330926309,0.504894149595418,0.590977535816424
810,cane,12m,FC,Trial1,0.303640131571519,0.684634524491944,0.325273686649058,0.608730927781306,0.550817368187262,0.455686007363162,0.293743942093185,0.542632609390835,0.812583199187642,0.478197540179364,0.454204246032041,0.366896155247149,0.620434699938041,0.712576493094626,0.716685267413016,0.684563326481193,0.482841266234173,0.500763409190786,0.606196801580639
820,cane,12m,FC,Trial1,0.306078065960258,0.682035020106768,0.313258086412833,0.587227206902202,0.567530848916937,0.438210563024375,0.286907991144503,0.536296830186206,0.815554503689307,0.455745168074602,0.458701252862693,0.368524932142081,0.599692441039719,0.706624392739039,0.720931469254533,0.705389894527798,0.496206637762617,0.497091099157827,0.619585528139033
830,cane,12m,FC,Trial1,0.315257280289592,0.678689384265577,0.304251880488391,0.566379666205402,0.584898354276389,0.421240919443107,0.282139982533609,0.530411260703531,0.819156122219049,0.434053341919252,0.467493587770332,0.373558241379329,0.580697795202783,0.701467961838611,0.716234869229229,0.724064967083786,0.511457343368664,0.494219648961187,0.631250445700281
840,cane,12m,FC,Trial1,0.329708600133529,0.673616804812854,0.296933630218312,0.54604792007803,0.603222010210163,0.407008155528306,0.281348178428198,0.525848612578418,0.822197394647606,0.413574127004337,0.480088251439728,0.385330769946484,0.562924968260626,0.696713450278191,0.704657419790632,0.739905648433797,0.526147263621981,0.492473932044353,0.641594892174372
850,cane,12m,FC,Trial1,0.347876660402836,0.663462824844052,0.291136411268121,0.526482602619058,0.623102995806284,0.397323185660923,0.286620561835532,0.520007410964392,0.824490797005195,0.395087256230898,0.498558468808269,0.40667031149715,0.546019732905331,0.691472142347426,0.686741332508492,0.752066557676112,0.539168580809193,0.492305965141478,0.650565177775607
860,cane,12m,FC,Trial1,0.36799708440023,0.650487939701025,0.286903814471991,0.508067287088645,0.644711036276478,0.39336489167549,0.296708362920965,0.511673716641495,0.82598343163819,0.378952711701196,0.52114882825442,0.432487512979953,0.529944544993823,0.685404640811607,0.664579797966243,0.75985972587138,0.549424620760449,0.492383813765678,0.657933927803848
870,cane,12m,FC,Trial1,0.388134617560885,0.63615727153651,0.283314857815641,0.491172543848483,0.669043320722057,0.39656557631033,0.314707338960807,0.498626899199068,0.826683441255034,0.364546856154977,0.544671233990549,0.458973818342039,0.514959036569942,0.6828365617038,0.639708407812362,0.76169657384467,0.552378734989589,0.492059482160103,0.66348938942784
880,cane,12m,FC,Trial1,0.406620368241499,0.621360011222583,0.280053183881633,0.47607070280055,0.692568753289971,0.405425839262121,0.339622144513106,0.482771739401601,0.826638763460359,0.350307173715516,0.565391769554302,0.483434964638322,0.500999534453772,0.682820638034829,0.613074531107292,0.759394602675966,0.547994758306359,0.49135944847271,0.667045162985199
890,cane,12m,FC,Trial1,0.422553340208556,0.606645970656102,0.277581057547106,0.462781388495188,0.71529872744561,0.416975477592243,0.365198660243339,0.466162501520589,0.825855408460328,0.336642185835378,0.579354972865802,0.505936997603156,0.487893798782133,0.68592301363127,0.586026815265396,0.754187614441271,0.536829448351524,0.4891112448428,0.66839673053202
900,cane,12m,FC,Trial1,0.433938517144548,0.592449419963543,0.277320198126122,0.452994631444928,0.736565927395451,0.429057418968447,0.388377347921297,0.451838927796816,0.824498293953727,0.324717255425185,0.585857814417733,0.526221609268939,0.475926275109847,0.691068633340695,0.559591884286803,0.745584576403251,0.51702183524538,0.487994044899284,0.665136773584134
910,cane,12m,FC,Trial1,0.440989604525709,0.579353026381322,0.279430494721512,0.448953841545129,0.755956086500274,0.44030478367081,0.406066252549303,0.441676348587521,0.823291371641499,0.315198685710531,0.584294321536064,0.544457551025722,0.465454437351316,0.696912487621766,0.534738233627952,0.734126269004512,0.491220378634932,0.488694648541,0.655426615444286
920,cane,12m,FC,Trial1,0.444067101338852,0.567561083969795,0.282155711291437,0.445466195311329,0.771664450330174,0.449392814976338,0.416684819509703,0.436845177695776,0.821619619869981,0.308769025786145,0.574346525176158,0.560737353859423,0.456815846928672,0.702590035280419,0.51332322686765,0.720323485924586,0.462810991804703,0.490818180357116,0.644450392502673
930,cane,12m,FC,Trial1,0.443463370695774,0.556464290140451,0.285211340918142,0.443489213820843,0.783190387744971,0.455789047873566,0.419164339547892,0.437383765777832,0.819487230703633,0.306056907372,0.555428136765698,0.574877862746498,0.448432651739966,0.707584777982674,0.497773844729736,0.704977083107261,0.434326949205866,0.493003548824285,0.635882950401028
940,cane,12m,FC,Trial1,0.439508980391763,0.547470481005039,0.292288422268599,0.442544852491965,0.790810256949077,0.460892343053599,0.414836013622674,0.442445799745271,0.817430630519508,0.307300468121091,0.532272308136898,0.586345171613422,0.441920848319366,0.711590828082515,0.485427481532244,0.690074734859427,0.407651683794821,0.49383444665225,0.627583383949289
950,cane,12m,FC,Trial1,0.43224837226901,0.540251971973024,0.303125349331674,0.442264759287373,0.79492846648904,0.465259300348494,0.407712893363267,0.452233927469637,0.815749438360287,0.312344784746195,0.508231195979582,0.594620105751376,0.439391631231407,0.714477321289652,0.47447424822142,0.676186559001954,0.385939590654157,0.493900529557674,0.61946584590957
960,cane,12m,FC,Trial1,0.422037555107577,0.534033690278286,0.313704977766585,0.442407806677192,0.796807920609562,0.469537628632712,0.399858845835808,0.468828383646058,0.814676299036889,0.320933035714064,0.486527520890838,0.598464451511813,0.440672253192238,0.716247586047963,0.464230879968739,0.66201679991696,0.369790693278375,0.494547278554569,0.611253365402701
970,cane,12m,FC,Trial1,0.409533599219612,0.527570710972081,0.322987526670936,0.442814451892259,0.797279135472185,0.474039515439697,0.392937917344361,0.489691744413592,0.814407083696952,0.331348763704446,0.470449590400087,0.597807637418799,0.442982593329903,0.716986616173816,0.454231831618016,0.647609758298463,0.359264674751616,0.496241734248119,0.602611027243763
980,cane,12m,FC,Trial1,0.395171154457137,0.524348722951335,0.330502620236173,0.443391611132353,0.797044654498987,0.478914664033837,0.388044722922538,0.513215838276133,0.81509836604017,0.342658225592714,0.462664062928527,0.593567912937727,0.446334635860687,0.71680974602702,0.444179473295794,0.632985876132982,0.352359649059268,0.499484830247203,0.595267075108434
990,cane,12m,FC,Trial1,0.380091576332103,0.521922128608703,0.335078261810954,0.443592265078998,0.797025726853574,0.484349452936961,0.385687012494342,0.538048765152712,0.81687224279008,0.354751201541225,0.464131868069247,0.58615569983878,0.451679924186296,0.715829499092892,0.433946036210438,0.618364747812572,0.348862847092526,0.504429994768101,0.589957467768247
-1000,grasp,12m,FC,Trial1,0.438788861316635,0.656885938199148,0.483703505052448,0.605001742962209,0.648406022441386,0.666936294217631,0.59371425643319,0.625017854269508,0.731357378465427,0.709171491007805,0.612697985229373,0.542778916628786,0.481322935301742,0.708988366510776,0.625829243792068,0.552982543967893,0.278612050401155,0.668155052252645,0.291436092385337
-990,grasp,12m,FC,Trial1,0.439065736793126,0.635645184180457,0.458470138911643,0.599315979441974,0.63802538997032,0.663793253192081,0.603118992949873,0.6284022070076,0.73861439863102,0.714532980079922,0.605613492525974,0.539185661746827,0.509623065125024,0.708838382676413,0.602617028367,0.5497472757431,0.285898277097986,0.659868327079609,0.292705175125025
-980,grasp,12m,FC,Trial1,0.445582380253798,0.615674062961749,0.432025504960821,0.592569988072903,0.627997711146332,0.657353986567775,0.607822517923432,0.629516507854017,0.747754428459625,0.716826757485417,0.599256296340606,0.535861024504222,0.536661823051563,0.708290625193066,0.580078748550157,0.544289200776828,0.295046309005643,0.646826161562976,0.292931184064704
-970,grasp,12m,FC,Trial1,0.456890169064098,0.597752896663744,0.404983291847481,0.583540158062725,0.617768464655041,0.649411960974958,0.607511488488905,0.62772325021819,0.757577570547409,0.715246835235961,0.592367641788609,0.53276894376678,0.56038552455072,0.704862776526302,0.558515071712309,0.536062724259079,0.310835315331738,0.632483855914177,0.289086456964702
-960,grasp,12m,FC,Trial1,0.470520726754584,0.581026885010529,0.37827162596572,0.573259003980112,0.607263912040637,0.640451809942132,0.603604915404609,0.624980621053186,0.767101195947605,0.712263207642012,0.587674179253473,0.527733602144017,0.581346730765993,0.694806042207335,0.538036288475125,0.525100450542877,0.330736189094129,0.616290682246531,0.283483689651576
-950,grasp,12m,FC,Trial1,0.484676586397674,0.566825469236996,0.353614495568995,0.562729933567041,0.596471222718209,0.629161666739385,0.597933251088158,0.621170760309249,0.775854419867606,0.708721962911888,0.587039873054209,0.519061478621814,0.601344009844318,0.682538994463446,0.518657580900231,0.511701565780337,0.349161142762598,0.599449947753982,0.278204312880846
-940,grasp,12m,FC,Trial1,0.498582672867723,0.554063242329197,0.335502098718776,0.551817184666541,0.584650519417043,0.617663035214823,0.59124643337075,0.615220402445121,0.783472487133708,0.705091399211461,0.588925930168002,0.509795839340674,0.619020829575378,0.667903922194451,0.49999155760836,0.496796969798783,0.367029595442943,0.583771506251555,0.274594115530942
-930,grasp,12m,FC,Trial1,0.511845277839004,0.542455073665043,0.324856422925875,0.540321574781755,0.572416186926494,0.606033519451396,0.583761011354674,0.607449191311406,0.789677930959423,0.701241288346241,0.593277052935231,0.501053479837566,0.632102310437615,0.651310637856878,0.481883586503014,0.481471433852677,0.383638116679146,0.569047885547374,0.270994258664746
-920,grasp,12m,FC,Trial1,0.524313899896435,0.534236123842649,0.318570784998569,0.528225342765754,0.560239039545521,0.594877201781502,0.574601662481979,0.597696071646829,0.794255669257827,0.697143112665425,0.599682188646141,0.493588387183359,0.641280029990608,0.634193206135335,0.464633709494196,0.466425659241155,0.399627149877969,0.552997009957586,0.268353186855553
-910,grasp,12m,FC,Trial1,0.535955051875652,0.531354643014528,0.316563734234617,0.515615531925871,0.548210142673438,0.585060826688168,0.564950204116339,0.586136639852492,0.797047512510846,0.69344282810582,0.607597174102393,0.487574037546285,0.647273727130593,0.61688297270236,0.447402271912761,0.455264347576565,0.411951583103872,0.535138162620597,0.26701847494802
-900,grasp,12m,FC,Trial1,0.546764349473617,0.53170917452912,0.318499272942924,0.502445583902971,0.536157460471454,0.57723887014082,0.55644703874271,0.573263199033094,0.797980195764824,0.689499181809631,0.616449288594312,0.482926711630551,0.649088301906022,0.599569907892052,0.430633513137403,0.445804250166746,0.41883717996872,0.515792114142499,0.267910792382917
-890,grasp,12m,FC,Trial1,0.556727455120389,0.534052990198829,0.32354009551043,0.488647865689546,0.52171638270301,0.570273171872746,0.550357254999602,0.559558534833142,0.797079706149112,0.685474530393205,0.625877797766996,0.479615905361179,0.645493024759278,0.582328710720239,0.415270506342313,0.438795406150334,0.42341848340594,0.496862227613968,0.267298751813
-880,grasp,12m,FC,Trial1,0.565813819217994,0.538058115442895,0.329520866823008,0.472478154735917,0.50600555790389,0.564324331095879,0.547891145989245,0.545193638789708,0.794400318904059,0.681567077465473,0.635450287427687,0.47767308001024,0.638142339614954,0.565176836240545,0.403258165821478,0.43288485366099,0.426091530206983,0.479784226988832,0.263651575501604
-870,grasp,12m,FC,Trial1,0.573986057506779,0.543374076743725,0.336237831245339,0.455976406444627,0.492858586867696,0.559413224452481,0.549295674042534,0.53014191675683,0.790050035288196,0.677545458484709,0.644513229457446,0.477162009149857,0.627229694157616,0.548133860831166,0.397310567243174,0.428185361185866,0.427343771537948,0.465524395556383,0.259390897625223
-860,grasp,12m,FC,Trial1,0.581213012503348,0.549671269953373,0.342316963417484,0.44090782030482,0.482220562700182,0.556183600046288,0.553456051655723,0.514442844919159,0.784056385472767,0.67282583242248,0.652908151435795,0.478192449276098,0.615369542565722,0.531254856875183,0.396321656381009,0.425625839571196,0.42853424140084,0.45791083365356,0.254340788405166
-850,grasp,12m,FC,Trial1,0.587484837702733,0.556652880552209,0.347368878900653,0.428660662603022,0.473777982012555,0.555840944831468,0.55976963125485,0.498729323272669,0.775967497796203,0.666016403965874,0.659701402367286,0.480975107620674,0.605134640570831,0.514631154861161,0.397987441242664,0.425310210663669,0.430308208705695,0.454458499622458,0.249353338909452
-840,grasp,12m,FC,Trial1,0.59283229567844,0.564060348954297,0.349522244073532,0.419833674435205,0.467363292264259,0.553588074133241,0.567321652842242,0.483960057313504,0.767923902911378,0.655919702199635,0.662563750137953,0.485860576076494,0.597479757459772,0.498359267539216,0.401607105723976,0.425580525277809,0.432973584309753,0.45454393209537,0.245689435505281
-830,grasp,12m,FC,Trial1,0.59733518204863,0.571671987319623,0.349815436386793,0.415013208958624,0.462231429602628,0.549917567854085,0.57581097164425,0.471191515115185,0.760354148601314,0.642730641067768,0.661795798837316,0.493382380378751,0.590632672192047,0.482524942721878,0.405573198232396,0.426405751512067,0.438688808446331,0.459646170614641,0.244051268175711
-820,grasp,12m,FC,Trial1,0.601099563974604,0.579303040209774,0.347833919672519,0.413007955526492,0.457937508434777,0.544789455719071,0.585147978374527,0.459828780279755,0.753472115787963,0.628026689900708,0.657910297034498,0.504282586054624,0.58588833894145,0.468147194638412,0.408676205277965,0.427703920259575,0.446160457862197,0.468567102441128,0.244834901347347
-810,grasp,12m,FC,Trial1,0.604217044825604,0.586827073902832,0.344655798799412,0.410700176893552,0.454924447661865,0.536525228087316,0.595082346461273,0.449012066015765,0.747388454772984,0.612439140211209,0.651372301303223,0.519276763440586,0.582669442448201,0.454099338360884,0.410238734779222,0.429522301565663,0.454183877074692,0.478509708472439,0.248088376885025
-800,grasp,12m,FC,Trial1,0.606742093154797,0.594243519009171,0.340084852412027,0.409041582444102,0.453328657322111,0.526450923881501,0.604839986934541,0.438405919683139,0.742125105028714,0.596115097983713,0.642609317944361,0.541267059597184,0.580356574709003,0.438683596070167,0.409661709457526,0.43252682318443,0.461544534358977,0.486079180234378,0.253554426056814
-790,grasp,12m,FC,Trial1,0.608696317546064,0.601711688040135,0.333334536578701,0.409276739293596,0.452852175699018,0.515800081011313,0.61339131094879,0.427912951592078,0.737652979621106,0.579469182808775,0.632031448177714,0.567209643569377,0.578871566599285,0.425331407772998,0.4082166557307,0.437596796615434,0.466260612416583,0.492397508452628,0.26109591802944
-780,grasp,12m,FC,Trial1,0.610392113537071,0.60930406678993,0.323515443376885,0.412323074824694,0.458704799711534,0.505015212498915,0.620541355626696,0.416012839610667,0.733920873497299,0.564661431499482,0.620034870506476,0.590211132583934,0.578471495748833,0.415726160496523,0.405911109769943,0.443682416946403,0.466205595053853,0.497442768101058,0.270683056165669
-770,grasp,12m,FC,Trial1,0.613506478729624,0.616794330045623,0.30802649328559,0.418065130014975,0.462308720856236,0.494533146086066,0.627581027825495,0.403210986702636,0.730872542972857,0.552191348315945,0.607039110960382,0.608494389151876,0.579042469766787,0.407968499458784,0.402527252053011,0.450343296624917,0.463487845088442,0.50041240773752,0.278464770931281
-760,grasp,12m,FC,Trial1,0.617451939224364,0.623397339947066,0.288786339547518,0.424092709982143,0.464798369506123,0.48486345286649,0.634571348812334,0.390992607933226,0.7284556190928,0.542382381321699,0.59361965204908,0.623710259650409,0.580194678025367,0.401772046169749,0.397035485554455,0.457725395099248,0.460179090998,0.497353123192359,0.284387789604893
-750,grasp,12m,FC,Trial1,0.622246374963301,0.628576480073811,0.266683664384587,0.42976559546995,0.465053450442991,0.476621533853266,0.641539291445969,0.379979201840166,0.726625035752663,0.537376583121046,0.579876392876779,0.63409790295316,0.581218774009855,0.397753660508457,0.388181073213036,0.464559491461506,0.459779757573724,0.491654964260326,0.288999759872493
-740,grasp,12m,FC,Trial1,0.628936304215331,0.632364561300399,0.242499617992334,0.435066710362976,0.466039272517522,0.470755166706247,0.648516033765913,0.370817467942438,0.725342455186079,0.537212027565839,0.56503589383951,0.640284091364079,0.581042066963518,0.3962709200093,0.379914991426071,0.472047124769917,0.461161675357457,0.481850876992991,0.294200054932641
-730,grasp,12m,FC,Trial1,0.63446598652982,0.634288248227959,0.217223897078691,0.441896981704473,0.468194667810961,0.469994270593371,0.655464474227579,0.36391317074196,0.724572711165171,0.537513177837815,0.547254691098037,0.644275504703136,0.578343052152766,0.394153428946368,0.376429888924636,0.478733727642189,0.464254587129383,0.468579709827614,0.301533341188177
-720,grasp,12m,FC,Trial1,0.638260316571563,0.633573946243469,0.192127497877258,0.450768034236858,0.472140816775331,0.475520890982891,0.662177235514012,0.359404320843072,0.724278491214673,0.537609237139387,0.526217592941466,0.64670322256026,0.572173854620963,0.393122414806422,0.379176498452725,0.482896992756178,0.469031300382831,0.453348342195,0.310895248520285
-710,grasp,12m,FC,Trial1,0.639905360802487,0.631062711652015,0.169509428123667,0.461886896191642,0.478339978130507,0.485644879352962,0.668464811691129,0.357024418257047,0.724415036040662,0.535849266766942,0.503295948296933,0.647446485779943,0.56101738643299,0.3927601742365,0.384999892450916,0.483331538974171,0.474990921332464,0.437199062867612,0.32229520524344
-700,grasp,12m,FC,Trial1,0.638631838091417,0.626809949616422,0.152681741466671,0.475602674786998,0.487173453217428,0.498346959334492,0.674861127445223,0.35571464106436,0.724927023403156,0.529919397059055,0.479254378322027,0.646905877511222,0.547479563520658,0.392856096988143,0.394032965557465,0.479211451051759,0.481415049722161,0.423076761645541,0.335353017758539
-690,grasp,12m,FC,Trial1,0.633105535914324,0.620852807010173,0.141311803655454,0.491615000537188,0.501900752713762,0.511736845073944,0.680958627387399,0.353279225352864,0.725749442892237,0.518081119065392,0.454385586381378,0.645457421320327,0.528684480712052,0.393345625094336,0.406248117571781,0.47141759682619,0.487470085790329,0.412110938660817,0.349364766424021
-680,grasp,12m,FC,Trial1,0.622702109246304,0.613888314677584,0.135944536432378,0.510028474189198,0.522103590713925,0.524740459715566,0.685715967290075,0.345196778791494,0.726811190547324,0.503994940867654,0.428717477771239,0.643688745142813,0.508686184373662,0.39418934834373,0.423011406787995,0.466605371050238,0.492019117068204,0.405595833888802,0.363943564517302
-670,grasp,12m,FC,Trial1,0.609095722961042,0.606858705713652,0.13725005899867,0.529929276237208,0.543925937892748,0.536917959542231,0.68623947029314,0.333004576364239,0.728027819995975,0.490031703449084,0.402047546738806,0.641912654815687,0.490009015635603,0.395356787051494,0.442727431122953,0.463786534736828,0.489875686024698,0.407183914246152,0.379098287910478
-660,grasp,12m,FC,Trial1,0.593610648256435,0.600780914365077,0.145598482329774,0.550365095819482,0.56610544486086,0.548232323237767,0.683137766339102,0.317754118617442,0.729246089994957,0.478150507285894,0.37405728565488,0.640072536193829,0.472984132854424,0.396736613433722,0.463781437076797,0.462910556140515,0.480418283571874,0.413318162733174,0.394974777921839
-650,grasp,12m,FC,Trial1,0.577418779757636,0.59670481658258,0.161981923480687,0.570173465704067,0.58750324277762,0.558805090126191,0.678257650546544,0.300688173738448,0.730083157600517,0.466942047164427,0.345366501049472,0.637895652723399,0.456499932003134,0.397718733057287,0.485248371059813,0.465704804719299,0.468226083584982,0.42057242858497,0.411431654548556
-640,grasp,12m,FC,Trial1,0.56157662805431,0.594943811710846,0.178480064337441,0.587315575983976,0.607175164330216,0.568586273607658,0.672318872579228,0.283263640309545,0.729373082682899,0.45567778887182,0.31927996418247,0.63496340894243,0.442341184078122,0.397407305105998,0.505009918644347,0.46998129931991,0.454232040849409,0.427823405384067,0.428181974469207
-630,grasp,12m,FC,Trial1,0.547829137322724,0.594787335631345,0.193990044538431,0.60098321535948,0.623896588567258,0.576188318959792,0.667161626060186,0.267381493524924,0.72575405950167,0.444224478199917,0.299387002976694,0.630976153531608,0.431573656903443,0.392507822807824,0.521809818698996,0.475560979064948,0.43529693111068,0.433451079167321,0.4452891665194
-620,grasp,12m,FC,Trial1,0.534615554636547,0.595733297123399,0.207714656412226,0.610366380866812,0.634871238787554,0.577098287998389,0.66456699733598,0.252761774009224,0.721057817279358,0.432527533197635,0.28145490765885,0.62609666716729,0.424308940480886,0.386355562153273,0.535563416816344,0.482789505434368,0.411511008434534,0.435539864704352,0.462993209243408
-610,grasp,12m,FC,Trial1,0.52127307047548,0.596692666289837,0.218838720265843,0.613002011779331,0.637618103169962,0.573996051349808,0.661639588570374,0.243317886838773,0.716366321467001,0.420885066156575,0.267756651777581,0.623188633411042,0.419701271689846,0.380122860268807,0.54725379197225,0.491574000597259,0.386083678678291,0.4323866020058,0.480787606713131
-600,grasp,12m,FC,Trial1,0.508099508651845,0.596930199319283,0.228989780636938,0.609300930246268,0.634734232195869,0.567435761670875,0.661713437807215,0.240348461090029,0.712476664883284,0.40983341430609,0.25950417601724,0.62436454419099,0.417086693570529,0.373741960541317,0.557415870226475,0.501302715791488,0.361265359765425,0.426580004563836,0.496978976652773
-590,grasp,12m,FC,Trial1,0.495327422607421,0.597807838215197,0.241103363404495,0.5995918918269,0.628569266160623,0.559808596275806,0.662710300691739,0.243393198231738,0.710227887904888,0.399848244395243,0.258080567160929,0.626287434933517,0.415944724771808,0.368499052257691,0.565380929010065,0.512520619006516,0.338460944832317,0.418932261819,0.510692266483594
-580,grasp,12m,FC,Trial1,0.483370151739532,0.599694400949549,0.255656114611934,0.583415438624017,0.620051862354863,0.551861628173108,0.661585372672258,0.252511630860111,0.71008353650854,0.391040396807658,0.261475900719503,0.628547808865002,0.415958778255774,0.36458443787226,0.569949545373045,0.525489885466224,0.318306345220216,0.410099130868931,0.523512221869921
-570,grasp,12m,FC,Trial1,0.472603082427028,0.601436633227361,0.272019841988968,0.566333788668447,0.60969964072466,0.543743791862913,0.658256953180388,0.267076203905702,0.712081213074713,0.385325358201802,0.267261639021459,0.631404219744266,0.416537001497187,0.36239340231507,0.571834827443002,0.540603038203806,0.301209760666891,0.400891665040901,0.536173740632929
-560,grasp,12m,FC,Trial1,0.463321524479242,0.607200016296581,0.289313379765476,0.551535103115187,0.597876743400754,0.537512302008371,0.654995328588413,0.286281502475841,0.715879818630222,0.382313938081896,0.272932263955113,0.633398817060876,0.415033835677984,0.364155981422322,0.569147411564825,0.558105244114645,0.288082474934712,0.393010929811491,0.549016185736377
-550,grasp,12m,FC,Trial1,0.455749476651132,0.615399170616317,0.30666549024829,0.53789604394095,0.585098861721544,0.533227729135051,0.6522127366081,0.308293390650912,0.720883646510933,0.382204748209466,0.276926630779815,0.633871385843242,0.407166003481901,0.367337776712385,0.560609733379268,0.578212687223476,0.282112958027692,0.385223793971404,0.562105185874327
-540,grasp,12m,FC,Trial1,0.45009311624673,0.621541202427299,0.323315145034506,0.525394247843985,0.572163169709875,0.531031626079951,0.650269826681695,0.33079328178892,0.726381469034677,0.386490090718597,0.280059208684527,0.632780731191509,0.394614944596112,0.370660844893835,0.54848604061904,0.601038684409456,0.281363783193692,0.377078298998762,0.575295979107185
-530,grasp,12m,FC,Trial1,0.446663988966991,0.62590782827212,0.338608727093225,0.514642440493119,0.55976239451958,0.530668980561557,0.649397405029028,0.352090250802204,0.73166244312972,0.39405581412231,0.283951864757556,0.629845488942794,0.379599487350575,0.373693564820347,0.533344373665074,0.626267120373249,0.283952524513165,0.369772136190149,0.588309983735626
-520,grasp,12m,FC,Trial1,0.445981172252667,0.629297996842265,0.35234335772622,0.505819449195897,0.548374499835033,0.531565678016818,0.649828787287343,0.370893275757343,0.736079160911694,0.402633549408488,0.288818166566783,0.624403124410748,0.366216481907092,0.376459379312015,0.516205658046781,0.65283990798915,0.287448735070954,0.367942272903388,0.600782280523505
-510,grasp,12m,FC,Trial1,0.448654514039928,0.631754163067428,0.365084143311752,0.498700122609853,0.538392599928872,0.532907690525103,0.651870504314174,0.38627523696816,0.739468103189084,0.411721624241392,0.294784805014226,0.614912469228796,0.354655079100499,0.379282792750555,0.497943034544892,0.680171946761891,0.289871772741205,0.366889160924623,0.612300484026891
-500,grasp,12m,FC,Trial1,0.455214030935239,0.630100364043921,0.377621793049076,0.493126107839003,0.530159381489384,0.533751356183395,0.655881827324168,0.397898303341109,0.741323012100372,0.421283732373292,0.302266503059635,0.599395409399367,0.345341799131956,0.382621683435419,0.479883931200217,0.705916815242024,0.28744682647422,0.364044279839652,0.622482746492247
-490,grasp,12m,FC,Trial1,0.465082073053587,0.624620846093151,0.390524563108236,0.487888839928148,0.523873609487151,0.53409887785615,0.662090097297836,0.406096369003193,0.74085385376613,0.431189908433226,0.312886278523668,0.57989438598706,0.342074132965548,0.386896966694756,0.463782336272573,0.729357605886253,0.280751191075672,0.360173691025194,0.631036199664015
-480,grasp,12m,FC,Trial1,0.478130848729737,0.616812772853615,0.403888921332538,0.483988849081651,0.519334931482766,0.534440760003294,0.670498334668731,0.411279710912431,0.739252551897348,0.441154117274473,0.329628744487625,0.555902184073155,0.343430773999909,0.392413019293956,0.447560399789967,0.750778900054719,0.271988349995798,0.356801478038718,0.636236966663859
-470,grasp,12m,FC,Trial1,0.493494921714413,0.607241338469943,0.416841395666737,0.479439775783067,0.515026706623601,0.535027351353512,0.680945779512114,0.415868537104006,0.736716113533433,0.450747512204824,0.350070958899499,0.530773960782971,0.347228123541656,0.399761145671324,0.432427386538303,0.769653519381671,0.262588151532304,0.354141871973894,0.638380565369219
-460,grasp,12m,FC,Trial1,0.509231168179072,0.596402819399402,0.427028787595473,0.473645848243975,0.508351723989421,0.53567782796551,0.692856096784591,0.420024939351629,0.73341504605488,0.459296065578742,0.372745230228225,0.50580360327417,0.352648604694176,0.408698754457939,0.418388893493649,0.786668644042617,0.253503370102232,0.351002117080819,0.637892621773756
-450,grasp,12m,FC,Trial1,0.523074735566316,0.58452703130397,0.433593954354837,0.466411763966833,0.502916310700854,0.535414054266271,0.705401298159326,0.423275141699656,0.729428759668229,0.465566831109806,0.396125321064138,0.481745425375072,0.359589842856069,0.4175222098365,0.405076150691003,0.801990071813266,0.245555884208488,0.346821707948354,0.635797313376271
-440,grasp,12m,FC,Trial1,0.531286246019149,0.572804573947448,0.43647689492431,0.458254126879175,0.497407990121874,0.532260273152643,0.718130800793205,0.426221420237506,0.725413939910701,0.469791564704407,0.418366543660111,0.459140334743205,0.368555855289931,0.425911321918074,0.392061396200945,0.815140691545291,0.239748567284654,0.343642957983932,0.632351595142323
-430,grasp,12m,FC,Trial1,0.537235907308125,0.561991651308029,0.440085528006997,0.449438329296068,0.49222047362349,0.526552439005492,0.730728469641153,0.43040232629081,0.721928584831094,0.472700435095857,0.437631903879789,0.438327995907838,0.380905440397232,0.433146278668895,0.379085327949638,0.82549679819881,0.238425833604037,0.348295481853101,0.627888337542556
-420,grasp,12m,FC,Trial1,0.539706836129067,0.552746210565746,0.446275648125629,0.440075869165116,0.487890148281708,0.521155021736404,0.742755198666375,0.436042624910229,0.717193935939194,0.474764527833541,0.45640575213257,0.419746759937977,0.399113597566439,0.441615551594351,0.36612724032057,0.830333596600859,0.242087192327938,0.362754125153499,0.622678188168518
-410,grasp,12m,FC,Trial1,0.539905992115823,0.545724501569782,0.45605556060761,0.431234457663654,0.484377432913308,0.513181714562273,0.753790405004772,0.440672039895186,0.710467066265708,0.476771079177863,0.480117177191644,0.403897769548478,0.42086348100122,0.44991204640911,0.353419965969559,0.832365248515588,0.2479513604173,0.378321856694176,0.616731908367082
-400,grasp,12m,FC,Trial1,0.538421243219096,0.5412807012807,0.469590907513855,0.424725254532398,0.481730619581829,0.502226421099239,0.763397474704605,0.442087272048929,0.701774089133717,0.480283834033764,0.502120571613226,0.391115857044867,0.445421650339528,0.458118150846922,0.341532316774006,0.831343675259211,0.255565969762417,0.394525496600772,0.612717348414792
-390,grasp,12m,FC,Trial1,0.535835273421812,0.538773330730191,0.486608371722515,0.420580944240476,0.480084442716051,0.490271725766235,0.770978989447196,0.440119062871219,0.690716336220275,0.48470284020552,0.52097779803886,0.381592136049096,0.471609110552217,0.46653600381774,0.331326214768158,0.827264870614711,0.26410930052805,0.41089655979061,0.610829678374576
-380,grasp,12m,FC,Trial1,0.532803707646226,0.537526733416136,0.504590730919825,0.420026787675201,0.479478058176757,0.47751756380377,0.776489918897364,0.435246820343268,0.676569773082734,0.490046657920918,0.534985630228982,0.375539272656775,0.497507363724725,0.474611383935066,0.32403787781879,0.820636748691774,0.272555209918092,0.426838122085373,0.610423985437472
-370,grasp,12m,FC,Trial1,0.529697885134718,0.537236126037831,0.523339146162191,0.421725605209459,0.479980599321552,0.466071915082811,0.779240801702073,0.4282840968822,0.659654053745172,0.495018250041034,0.544550535413522,0.373214707145278,0.522518350529928,0.48077450718618,0.321229990495999,0.812785471904726,0.279334171224356,0.443686971949679,0.610927435055362
-360,grasp,12m,FC,Trial1,0.527500003918879,0.537617643586083,0.542374023078455,0.424050261249513,0.481620397637446,0.457505745263445,0.779749526454836,0.420442095030211,0.640314544999641,0.500127825260596,0.551073817269821,0.374619517564486,0.544533596242069,0.482559106707861,0.324075526029493,0.804750909027169,0.286938249414103,0.460532379502491,0.61212434979683
-350,grasp,12m,FC,Trial1,0.527470847697261,0.538060459338881,0.561217068653483,0.426653064255738,0.484316149491222,0.452737493502348,0.77870561794681,0.412538648776697,0.619004910011116,0.506547788654571,0.55650133547133,0.378788859443619,0.559657135514702,0.481613894303314,0.329569687082966,0.797541201541675,0.297972849544374,0.475117455260359,0.614470093219149
-340,grasp,12m,FC,Trial1,0.526206877785317,0.537809615119355,0.579648990118694,0.429055825525811,0.487916812559061,0.451594411374995,0.776308661847504,0.405090396143256,0.596526624275584,0.514522730176865,0.561894288682706,0.383899474673795,0.566365296096116,0.478423065895926,0.336044666154773,0.792394708677833,0.311113244085083,0.487837772196015,0.61877546592856
-330,grasp,12m,FC,Trial1,0.524217340748586,0.536452200484773,0.59754423002773,0.431671599325742,0.492207000090588,0.453141125392779,0.772728050673663,0.398090136208891,0.574182057295282,0.522322181589347,0.567769266908573,0.387733743698405,0.568069442648845,0.472539979657034,0.343970764334515,0.79018497286481,0.325892920274499,0.498542123981405,0.625254305226802
-320,grasp,12m,FC,Trial1,0.521123854319053,0.5360491465072,0.614782299116579,0.43493126587463,0.496884053855271,0.456616481757696,0.768022407751335,0.390638877135175,0.553525129487979,0.530187698702319,0.57432903253899,0.389342888966047,0.568647448951963,0.463827060110456,0.354306168015556,0.790636976535493,0.342870048583555,0.508325592559432,0.633366013379007
-310,grasp,12m,FC,Trial1,0.520723920409214,0.53774106970495,0.631183990857778,0.439168444417462,0.501552815331638,0.461340733530156,0.762071634646603,0.383508599229295,0.534682993465556,0.539105718767904,0.581517779630803,0.391971176403697,0.570228748119352,0.452681407866766,0.367680008136186,0.792464966554867,0.362669934379855,0.515287999307166,0.642463528486652
-300,grasp,12m,FC,Trial1,0.524361890037268,0.540543653002007,0.646459626989568,0.444637548843174,0.505909478519888,0.466520642685951,0.754720973750834,0.377845460649464,0.516901160519577,0.548559284341405,0.589092330429318,0.392988297613637,0.57374393140412,0.439100634273693,0.380755238312647,0.795090606693888,0.387526586478233,0.524615806390807,0.651870782151691
-290,grasp,12m,FC,Trial1,0.531773317450522,0.543531316389132,0.660155975314136,0.451512973848033,0.509733821740146,0.471494238913893,0.746375540196489,0.371013384714601,0.499994989434343,0.557305726233161,0.59672061497127,0.394876827318398,0.580633402572879,0.425172885196046,0.390957087990948,0.798047560620498,0.41330992993989,0.537395203291999,0.660969822090019
-280,grasp,12m,FC,Trial1,0.539246578889204,0.546291186864041,0.671659391398555,0.459903672954202,0.512018633799036,0.476105867365123,0.737728316895498,0.362577069631591,0.484091977019948,0.564346850222768,0.604078972756277,0.396551743726336,0.585432182751231,0.412330494115014,0.394145302004908,0.80109811763159,0.438284061798742,0.550496764047643,0.669741877004569
-270,grasp,12m,FC,Trial1,0.545105797676966,0.548357213981408,0.680227645287198,0.469841570710582,0.513000239166846,0.48111100048233,0.729258621642113,0.350337435843431,0.469475754183088,0.569056579921759,0.610916508147289,0.39774510612618,0.589301328935931,0.401598874156854,0.390828824727905,0.804471486865239,0.462025123380109,0.562817622293231,0.678744779384863
-260,grasp,12m,FC,Trial1,0.550015237131107,0.549219311711584,0.686672897370114,0.481244028362015,0.512254696662122,0.488559657601355,0.721371484611241,0.340014593982563,0.456477846643686,0.569336804743901,0.617079208227627,0.400140129005832,0.592334540441496,0.392989246129559,0.384636432791187,0.809480319237268,0.484291507668307,0.572290707834446,0.685828132606865
-250,grasp,12m,FC,Trial1,0.554540529048659,0.548297808126984,0.693357266947832,0.493869337439267,0.510016633806596,0.497809520706063,0.714413470874183,0.343377866173055,0.445430025789232,0.561153361694625,0.622823459336642,0.403397021674754,0.593492449375954,0.385631920198404,0.37761919477805,0.817438909023729,0.504820559929834,0.576248059514044,0.694044474831335
-240,grasp,12m,FC,Trial1,0.558830880849092,0.544727603836016,0.697066561670725,0.507262457562123,0.506895216777501,0.508386687137917,0.708319251910774,0.355882733313819,0.436659751043857,0.549338730001637,0.628371775695074,0.4067949758711,0.594457492394736,0.380491925046655,0.369307331774593,0.826432202425108,0.523073652322481,0.577308354481831,0.702932332122303
-230,grasp,12m,FC,Trial1,0.562585023478848,0.537945827211726,0.696720570860914,0.520679335040917,0.503431731802402,0.519744107045734,0.702577404461965,0.371769314339605,0.430520064195759,0.536001014324579,0.629746961323972,0.409490859997305,0.595096485309225,0.378236413061764,0.359639073350004,0.834976344932183,0.53790286321533,0.575726032443249,0.7083635727082
-220,grasp,12m,FC,Trial1,0.563468505558641,0.528734657632642,0.695416477510655,0.532888410780282,0.500012690312706,0.531126848118528,0.69834295968305,0.389662308122205,0.427444453299682,0.522573160205296,0.626594657851312,0.410708362139571,0.594799772716051,0.379415348214147,0.351370728534846,0.842644138074788,0.547829756540216,0.573425968118263,0.710932671852583
-210,grasp,12m,FC,Trial1,0.559129844748274,0.51788687129904,0.693932479760694,0.541160264217905,0.496898963940359,0.541696032192058,0.695669787286775,0.409400375082442,0.428013381131984,0.510552181498666,0.619516651949965,0.40980470253849,0.593740005405921,0.384443946986182,0.345526219789449,0.849003880299336,0.552107020760165,0.571186558849114,0.71083660413433
-200,grasp,12m,FC,Trial1,0.55068875800089,0.505457558912125,0.69261828420443,0.543375232394329,0.494317546448631,0.550275019883401,0.690755129138685,0.431057190074324,0.432345999987782,0.501724038869834,0.609094350344852,0.406352178565925,0.59151088737197,0.393578435471273,0.343347740644537,0.853694711968089,0.553732685270879,0.572763911457622,0.708708767836984
-190,grasp,12m,FC,Trial1,0.542935022357588,0.49147104924114,0.691557595784985,0.542143326478054,0.492588916874915,0.55624371685467,0.680949312624357,0.454362760945852,0.438989631263945,0.498384222060705,0.596080566743283,0.400274210559794,0.587610516495543,0.406857255170973,0.345933484515358,0.855830380894192,0.556322683559149,0.578273407362958,0.705401915867438
-180,grasp,12m,FC,Trial1,0.535856984010209,0.47732269413439,0.690685534804245,0.539010832619036,0.492196545054041,0.561243060430142,0.669273963751388,0.478675711539263,0.446739827903063,0.502093105227996,0.581355678712068,0.391972013431049,0.581501008974103,0.421412154019694,0.352898022310114,0.855411766117273,0.561627234304116,0.585869931164407,0.701522894192807
-170,grasp,12m,FC,Trial1,0.529830252730852,0.463396242032307,0.689795026867604,0.535695184001889,0.493756565612261,0.565317593592095,0.658292948194145,0.503228427101564,0.455376426445081,0.509945754737542,0.566014085252083,0.382387488300886,0.572429465669014,0.436527232503756,0.363496531693262,0.85431665894657,0.567268272188396,0.594670027659445,0.697383917011084
-160,grasp,12m,FC,Trial1,0.52542022134204,0.449899312128663,0.686783998091584,0.533920399836816,0.497904364839189,0.568118280935691,0.647197745893331,0.527295856206666,0.465601621038347,0.520786608489403,0.551359424110299,0.372927178288299,0.561537671289655,0.45202219724695,0.377438760818338,0.851760977444791,0.572158284047834,0.603931988261454,0.693046841112977
-150,grasp,12m,FC,Trial1,0.520898452547134,0.437185413548769,0.681484218486909,0.532489148000122,0.505184287811173,0.570927517607394,0.635614676954797,0.550267828916027,0.475359809982432,0.532711036702965,0.538832587478034,0.364950456262089,0.550101253114388,0.46779826602836,0.395129762069779,0.846428596771765,0.575784446437556,0.611856913620026,0.688384280675965
-140,grasp,12m,FC,Trial1,0.516806553375697,0.425771575210232,0.67508120255214,0.531567247497797,0.516583632546071,0.572500696979934,0.623670913458057,0.571460539877402,0.485074276668381,0.543357099200311,0.529964688624985,0.357683081760388,0.539153484485504,0.482610046314691,0.41720830230223,0.836453832679334,0.579123378271598,0.619320941124741,0.683404437364391
-130,grasp,12m,FC,Trial1,0.51352998298541,0.41644713135797,0.668384167389487,0.531014973785829,0.533014792516403,0.572134644122444,0.611576041546386,0.590089785233203,0.494561852067925,0.551181751845084,0.527050166270611,0.352829888888964,0.53047941654515,0.496177732326406,0.443382049995148,0.820201371358692,0.582163926046589,0.627716346030254,0.67840471241061
-120,grasp,12m,FC,Trial1,0.511497640789344,0.410677551333635,0.661937565031286,0.531232864523465,0.553672126884389,0.568389659128318,0.59954164197016,0.606184502423084,0.503841885473199,0.555947014506331,0.530174106913187,0.350895987900195,0.525158720957576,0.508539225852408,0.471706037715782,0.80047615727928,0.584089935623557,0.637065122059227,0.673630335976142
-110,grasp,12m,FC,Trial1,0.512190376006118,0.409353648982114,0.656572844820137,0.533309105215909,0.576868916686026,0.561406254193326,0.587681153440982,0.619485299392556,0.513944620165189,0.557274657425152,0.538043403269598,0.349880477523013,0.524277861331413,0.519597520806963,0.501364218078392,0.777408020148217,0.584400644416431,0.647016603464967,0.669143065867173
-100,grasp,12m,FC,Trial1,0.514940535815942,0.409796337919954,0.653098064675289,0.538126256084627,0.601640334364022,0.553016607642325,0.575979272389727,0.628552571258545,0.525175300545389,0.556627586147646,0.549468454496165,0.348658133328009,0.52543431105158,0.529056385552312,0.531884224634338,0.750360539510493,0.58339931862694,0.657176290054458,0.664208257211975
-90,grasp,12m,FC,Trial1,0.517894797517331,0.411398620857248,0.651281068203491,0.546650976296916,0.627367728390229,0.543203504990589,0.564317266559259,0.632420961757665,0.536294681406804,0.554674054915293,0.564132800943256,0.346352827713287,0.527637840138681,0.536033270308216,0.562530397664158,0.719525651536502,0.580966742568431,0.66716768685321,0.659370616032976
-80,grasp,12m,FC,Trial1,0.519841508832725,0.41336664603755,0.648999582237938,0.55749392562977,0.653199203648106,0.53243046602803,0.552492480010403,0.634876683615042,0.546952282490564,0.552629160322099,0.578179241912108,0.342251728472612,0.53058726731451,0.5410760792395,0.592500498355639,0.687165170036909,0.577616028815812,0.676648719895446,0.653517264789434
-70,grasp,12m,FC,Trial1,0.520837501607596,0.414830743538631,0.645064204911478,0.566839442739978,0.676908925812535,0.521327033229817,0.54004457153701,0.636390749119589,0.557113592081089,0.551566969582223,0.588903114935629,0.332543922284136,0.532010966666014,0.544339110958573,0.620685441934361,0.655413147972738,0.576637486029297,0.685333799212731,0.64705213712809
-60,grasp,12m,FC,Trial1,0.521286542970009,0.416179472609238,0.638225902966796,0.574702471664769,0.700277285519479,0.510444214019879,0.527214035820393,0.636825909858861,0.566830183801304,0.552223936309064,0.595134145757927,0.32076105861578,0.532817002590318,0.54607551749497,0.645161537957959,0.62345950873461,0.580629569115134,0.693015004089419,0.640138957159412
-50,grasp,12m,FC,Trial1,0.521300114768503,0.415162496830086,0.627493304927459,0.581252076658353,0.721580461840767,0.500245571194432,0.513222947092602,0.635704934507251,0.576128008228106,0.554871453911652,0.596203722597725,0.308124066632938,0.53265682799445,0.546750373435944,0.663706636394424,0.591999576395328,0.587657667571262,0.699546092390707,0.633051481132156
-40,grasp,12m,FC,Trial1,0.519067436511236,0.413239963387282,0.612426161197642,0.586373854546952,0.738790428038292,0.491212946153644,0.496450807693771,0.632007552430586,0.584894437484385,0.558709432434099,0.593366541507571,0.296869779061945,0.531378329943744,0.546655315544901,0.678601879687489,0.561346594718156,0.595440590893933,0.704823025444501,0.625868293818818
-30,grasp,12m,FC,Trial1,0.513852275310849,0.410222071920697,0.592820797266671,0.589504062692113,0.749230462489652,0.484149930108023,0.477475912491063,0.624462314840618,0.592664714411632,0.561508124036334,0.587538748378864,0.289497010442375,0.528906053601969,0.545972515447614,0.690443277455006,0.531574788560006,0.602683363581759,0.708908361235496,0.618460507797727
-20,grasp,12m,FC,Trial1,0.507508395348674,0.40601410018452,0.573986002809427,0.589891300264143,0.751354079219098,0.479978183329463,0.457968435792182,0.615756163260985,0.597235752865911,0.564859806074627,0.578467744236983,0.283916657805034,0.525480427996433,0.547026070108988,0.699652164640783,0.502549684391749,0.608672946656877,0.713149852271548,0.610702981098779
-10,grasp,12m,FC,Trial1,0.500548041290536,0.4007362623358,0.555610061841843,0.586739948894555,0.750250190061576,0.478424263352472,0.437603855993693,0.60622828066396,0.598994864141237,0.568645468785791,0.565994104646845,0.280232297170013,0.521093084041161,0.549263921496223,0.705276835527633,0.47401301115038,0.613052230017205,0.718883538827904,0.602606903419533
0,grasp,12m,FC,Trial1,0.493644918494442,0.394270501388649,0.535904755667658,0.579168962694097,0.748643036310227,0.478572637357567,0.416870690034481,0.596321579406705,0.596082883061524,0.573082522966929,0.552213350595914,0.278630194330177,0.515113223892941,0.552716800887617,0.709794666178501,0.445867358448103,0.615608777126493,0.729819316971904,0.594293106189119
10,grasp,12m,FC,Trial1,0.487559831874933,0.385710401290881,0.51396059978751,0.567201429177709,0.746650303425932,0.47981104585236,0.396791967725226,0.58617191275516,0.591468060158454,0.578296544201993,0.537036704691226,0.278428072805664,0.507550865723882,0.557320194817821,0.714151193986977,0.418260781233824,0.61630748500587,0.744490338207093,0.585848895395897
20,grasp,12m,FC,Trial1,0.483243096107756,0.374895141459759,0.488768614691245,0.552975036814158,0.745249221765128,0.482635371561241,0.377457130743211,0.576435721398246,0.586564000008051,0.584329026085522,0.521276586249411,0.278184381093556,0.497749503969616,0.562643419754646,0.718521363986125,0.391342408065913,0.615346059076763,0.760826338619283,0.577212394228957
30,grasp,12m,FC,Trial1,0.481758551822641,0.3613760514019,0.463526777559968,0.537392506046202,0.744707903440767,0.486787083829968,0.358592369801659,0.567927495588272,0.581664399871575,0.59115003258346,0.505292741848457,0.276444364106653,0.486386545918769,0.567325044846423,0.722647017851195,0.365160169422832,0.613076098948605,0.777937017251485,0.568094136118306
40,grasp,12m,FC,Trial1,0.48424139339964,0.345718508770157,0.440305398354972,0.521375892110339,0.744570275301153,0.491120044679815,0.340160409857942,0.560286016984176,0.576788214603289,0.598673544521359,0.489756596277585,0.272921462939144,0.473911458469201,0.569198986874868,0.726197456088382,0.339599297350209,0.609816604767341,0.795296557246771,0.558488988465238
50,grasp,12m,FC,Trial1,0.491988994617249,0.328621384503127,0.417768283032398,0.505688492578141,0.743777220504164,0.494043669949358,0.322495930501347,0.552798854327438,0.571863201144665,0.606797161776625,0.478204712678372,0.267710880473515,0.460711531265406,0.570740970418601,0.728847757351808,0.313939293929581,0.60576686248921,0.812345945023057,0.547200621824676
60,grasp,12m,FC,Trial1,0.500797443359736,0.310825530564372,0.394253282095962,0.490751192351479,0.741422967251542,0.497393454131158,0.306532421751293,0.544994508404174,0.566766090883046,0.615578460812834,0.468552372055857,0.260827395740914,0.447349933633425,0.570374141588566,0.730304003808986,0.286580063977214,0.601063317454548,0.827999205854557,0.534225211008669
70,grasp,12m,FC,Trial1,0.506341604331973,0.293283461046513,0.37116239248159,0.476420424478235,0.737251292673028,0.50154333048004,0.29203629417651,0.535351153493691,0.561240624498008,0.6254517268418,0.461579289226904,0.252233516484383,0.435583353730405,0.568467282220033,0.730365802167043,0.259481932807893,0.595789249119186,0.840974461331448,0.521816849866044
80,grasp,12m,FC,Trial1,0.507014247706443,0.277249087425895,0.351479591382381,0.461789677794705,0.730946992747772,0.507753134806245,0.278582265591008,0.524038077561195,0.554992121918249,0.637026168137236,0.458526779333504,0.241609917862962,0.430284021675206,0.564250810935212,0.729058588068572,0.235626926041488,0.590043147042038,0.847530950502269,0.511113443765654
90,grasp,12m,FC,Trial1,0.505764467138903,0.264343346296475,0.335028608955146,0.44430740375665,0.722239766553351,0.516204919489407,0.266440235631194,0.512351370857093,0.548262218921312,0.649756556253622,0.459623394722689,0.231148791625247,0.432625101540657,0.556650471722607,0.726688252287198,0.218041509157071,0.584391262292407,0.850419081080927,0.501921865315008
100,grasp,12m,FC,Trial1,0.504590091441396,0.255650079332747,0.321636171311693,0.425822276814976,0.711928462498635,0.526794732426383,0.256379580068703,0.501368516227856,0.54008727601245,0.664288054217064,0.462689579655413,0.220199980091457,0.44132693283795,0.547759327885489,0.72390393826872,0.20990317582465,0.578672273852549,0.850391033792217,0.494453476961986
110,grasp,12m,FC,Trial1,0.504454836227191,0.253272704121327,0.312314316762912,0.408412304328671,0.699021719598538,0.539282185634738,0.250872237489329,0.491613113033446,0.53085631503514,0.678171354885482,0.467017659837105,0.209165416981026,0.455100615693151,0.540854163245552,0.722474984774065,0.212306446063145,0.575444303972383,0.851318252561443,0.492069841407463
120,grasp,12m,FC,Trial1,0.505360032598939,0.260827921162654,0.307365038585532,0.39368509697375,0.683250911665859,0.553312219701623,0.252234903953873,0.483329162528666,0.522214654981291,0.690697014665634,0.472457809905225,0.199595130955884,0.473089780569626,0.538405893172272,0.721538683835488,0.223127245711633,0.575750868001554,0.85296002090799,0.492426691812009
130,grasp,12m,FC,Trial1,0.506547727797304,0.274136272693891,0.305514013699872,0.382644081773591,0.66582657757926,0.568427679092735,0.258344228961301,0.476699749441869,0.512028178485483,0.701386978446377,0.478738652968646,0.192339733831895,0.494266966056295,0.543113402329369,0.72128940810974,0.239057795210241,0.581385725073875,0.855290509407022,0.493403967292741
140,grasp,12m,FC,Trial1,0.50644388463749,0.291323144856067,0.308849441044167,0.37622972815072,0.647868756899458,0.584176661976425,0.268289559391588,0.471518429613261,0.500058252239298,0.709318297814415,0.485618782510777,0.187006924116866,0.515517058540257,0.553100042139565,0.722398689068192,0.25652787099212,0.591261952765884,0.858189614118008,0.493642624683733
150,grasp,12m,FC,Trial1,0.501253194195419,0.310749574140023,0.316024860263956,0.373395124597544,0.630662881333863,0.600158460088585,0.281628067284037,0.464380580452714,0.487278761482142,0.713975427495035,0.494177682170375,0.183190981585113,0.533615418105602,0.566266988184374,0.725034047326139,0.272977349231328,0.600909135097054,0.86109943097483,0.491469657328201
160,grasp,12m,FC,Trial1,0.487672379754014,0.330643305169271,0.324745884363124,0.373147050314604,0.615037387198723,0.615912933044703,0.298004353358814,0.457294028030263,0.475378732744244,0.714986770500204,0.504795302377793,0.18231831204179,0.541622921212487,0.581724678877008,0.729000060605928,0.28841054121233,0.609168589216266,0.860810467691344,0.486330747697444
170,grasp,12m,FC,Trial1,0.469111079573383,0.349554134742117,0.333681622186144,0.375494149420162,0.601574532465878,0.630865292495919,0.317162949173719,0.450249848382091,0.463500386019473,0.712296740164316,0.51699850503252,0.185142801796502,0.54156412689634,0.600345313860933,0.73406704401151,0.30343341914988,0.61588898443113,0.859643455860772,0.476154672107385
180,grasp,12m,FC,Trial1,0.449259028128758,0.3657951370613,0.342039965458691,0.37999280964902,0.590556780706501,0.644355264077291,0.338930693920825,0.442666589888105,0.452048866157922,0.706921319381758,0.530496812971537,0.190611129145367,0.536987667178293,0.62075529308234,0.739512870787897,0.31798898205508,0.621472262674797,0.858547054475673,0.461829952722493
190,grasp,12m,FC,Trial1,0.430869900205029,0.37928672147316,0.349206448010102,0.386542216509899,0.581910937506265,0.655682067231425,0.362575955472125,0.435119723233591,0.440469059829533,0.700113991300518,0.545494531349038,0.196020804786635,0.533619903852724,0.641410193699716,0.744133383377779,0.331957009523462,0.62556098535448,0.856964347562104,0.446063735618848
200,grasp,12m,FC,Trial1,0.416363713302344,0.391647992848048,0.354574208951165,0.396222395549135,0.57540198773241,0.664205965880305,0.386673693281667,0.429391108232636,0.428017332299862,0.69251854860652,0.561870281452157,0.202814282899088,0.532131961171102,0.661844053609428,0.747422845625185,0.345916451786786,0.627697175019035,0.85321717797574,0.430479973655872
210,grasp,12m,FC,Trial1,0.407593815131577,0.402696436760997,0.357150247901265,0.409193109939323,0.571060908529085,0.669118692865275,0.412668926443275,0.425653348208715,0.414710416009834,0.684779212104493,0.579191038373487,0.209508728457212,0.531843450603467,0.681363770007763,0.749948538626456,0.365145916054835,0.628946361228962,0.845956621415114,0.416412174886288
220,grasp,12m,FC,Trial1,0.40220242257483,0.412265013300517,0.356591223234597,0.422149959322303,0.567927932077373,0.67181376736889,0.440631557932146,0.423885660223533,0.400938932302342,0.67762862050994,0.59697535121973,0.214542140794777,0.532070831611947,0.698720082026657,0.750570822964372,0.389406139960353,0.629322250529324,0.837528715836836,0.405237100239031
230,grasp,12m,FC,Trial1,0.393861014667623,0.420268809727741,0.355640107212049,0.433928930644272,0.566594016793451,0.673563125205955,0.470339004758582,0.423981900612405,0.38676420288281,0.672116261924975,0.614552098244539,0.216721887356681,0.532271862104379,0.714099339035996,0.749614661139401,0.416273295067195,0.625897401252737,0.827480646551312,0.398426834541061
240,grasp,12m,FC,Trial1,0.383052704438276,0.426630857800128,0.354173628633477,0.443627524010412,0.567286142877207,0.674797356773955,0.501432052590443,0.425792922451566,0.372195013940861,0.667446342612456,0.631366448409777,0.217855030714257,0.532088990415849,0.727483963180209,0.7477253669072,0.444039388411869,0.620602728920104,0.81796961932056,0.397181270761867
250,grasp,12m,FC,Trial1,0.370468381739333,0.431265049973042,0.351906177707309,0.450918466127936,0.569269399546892,0.675239492193639,0.533456948041494,0.429185122085113,0.357454411698232,0.663260474468553,0.647385018122465,0.219563191534324,0.531390969529138,0.738729919673038,0.74505640881638,0.472057991929358,0.61372077913696,0.809697278158572,0.402560226742205
