Time,Condition,Age,ChannelPair,connect_overtime_LA_EEG_12_P04_CTS_MTH_chanpair_12m.mat,connect_overtime_LA_EEG_12_P05_CTS_MTH_chanpair_12m.mat,connect_overtime_LA_EEG_12_P06_CTS_MTH_chanpair_12m.mat,connect_overtime_LA_EEG_12_P07_CTS_MTH_chanpair_12m.mat,connect_overtime_LA_EEG_12_P08_CTS_MTH_chanpair_12m.mat,connect_overtime_LA_EEG_12_P10_CTS_MTH_chanpair_12m.mat,connect_overtime_LA_EEG_12_P11_CTS_MTH_chanpair_12m.mat,connect_overtime_LA_EEG_12_P16_CTS_MTH_chanpair_12m.mat,connect_overtime_LA_EEG_12_P17_CTS_MTH_chanpair_12m.mat,connect_overtime_LA_EEG_12_P19_CTS_MTH_chanpair_12m.mat,connect_overtime_LA_EEG_12_P20_CTS_MTH_chanpair_12m.mat,connect_overtime_LA_EEG_12_P21_CTS_MTH_chanpair_12m.mat,connect_overtime_LA_EEG_12_P22_CTS_MTH_chanpair_12m.mat,connect_overtime_LA_EEG_12_P23_CTS_MTH_chanpair_12m.mat,connect_overtime_LA_EEG_12_P24_CTS_MTH_chanpair_12m.mat,connect_overtime_LA_EEG_12_P25_CTS_MTH_chanpair_12m.mat,connect_overtime_LA_EEG_12_P26_CTS_MTH_chanpair_12m.mat,connect_overtime_LA_EEG_12_P27_CTS_MTH_chanpair_12m.mat,connect_overtime_LA_EEG_12_P28_CTS_MTH_chanpair_12m.mat
-1000,cane,12m,FC,0.502998564481172,0.576653179867858,0.400993572272896,0.519744502416045,0.577213802417017,0.466875232453074,0.497893573886916,0.518524972576456,0.475209892563953,0.558101959663555,0.576506593456867,0.465685787160404,0.485439189170599,0.598061496896306,0.53701783217267,0.56982390160666,0.477144178731116,0.488653328632602,0.362909691281763
-990,cane,12m,FC,0.496759792379822,0.576996314914202,0.409307133249293,0.517848623866894,0.584246833268702,0.468183974937542,0.492229495569186,0.524786851061767,0.464440689186732,0.561319907705238,0.575767990454004,0.47378155451494,0.48861240340743,0.596330417534336,0.530968851184771,0.566223836151014,0.480478458326223,0.494077170152357,0.359358325833043
-980,cane,12m,FC,0.491917791988972,0.576142875191779,0.418669786807586,0.508859583014722,0.585848801174932,0.466269431363548,0.48731673751226,0.531143842582976,0.457112736571151,0.565443121242232,0.571885787336137,0.482057055802242,0.494893793108638,0.59119494127587,0.524602534037933,0.559339344122279,0.485026032539981,0.498215100571395,0.356440667748321
-970,cane,12m,FC,0.487889551730502,0.575681693871221,0.429584695914385,0.49860397754167,0.581237967623004,0.459676532915056,0.482013694691279,0.535282506053938,0.45520608902244,0.571981973370717,0.56180361305069,0.489757932432936,0.502770840362662,0.582217521077206,0.519350961327814,0.548047585283362,0.491280430557431,0.50026750730861,0.355082840250578
-960,cane,12m,FC,0.484717257421544,0.574510335126492,0.441086567861744,0.489585847773187,0.572898560424412,0.450986743679441,0.475106964012994,0.537273191828093,0.457221269099209,0.578228739272705,0.547062246614382,0.49668070502581,0.511571008946209,0.571985737279662,0.516144752327558,0.532608713060497,0.500240132012371,0.500006900289569,0.35641819871588
-950,cane,12m,FC,0.482417963734406,0.572063485230484,0.451876055159837,0.483333364231209,0.561685191310534,0.444111281472183,0.470274363550491,0.538840114278933,0.462836213312228,0.581805095523114,0.529358180061549,0.502434695302755,0.518850570522995,0.561483788751057,0.516719910924472,0.517138451390929,0.509139925733608,0.498094879127211,0.362070487428775
-940,cane,12m,FC,0.481466957979194,0.56899269509969,0.463021519979239,0.482259510128393,0.548427760578785,0.439541683025035,0.468228427629973,0.540327557935946,0.473664124760646,0.585664433924788,0.511040485538271,0.506848943695596,0.521552705319352,0.552296421983481,0.519103837124921,0.506518369014237,0.516093981773335,0.496754308565371,0.373621789790818
-930,cane,12m,FC,0.482232089969423,0.565139701446301,0.473596610319705,0.48566976662884,0.534728640920989,0.435170781902907,0.467604697314509,0.540689416905924,0.490396122523331,0.590188662372127,0.496122934045432,0.510482773886184,0.521214256045867,0.544443014736887,0.523102755369649,0.501540478751849,0.520013548211451,0.497551230053751,0.390333711358562
-920,cane,12m,FC,0.485443705074518,0.561904074264368,0.486624749875096,0.487042125138592,0.524349170528816,0.432988065017603,0.46868287607863,0.538826177694454,0.508732723074541,0.59428890243486,0.483295152564964,0.514639697928348,0.521091582260661,0.536399536195029,0.526455813706571,0.503170119597617,0.523242664435148,0.500467246903173,0.408698199614757
-910,cane,12m,FC,0.490967604971063,0.560294500095204,0.497098589473359,0.48432383166698,0.518305720211675,0.437139826937955,0.471998432638552,0.535423316796286,0.52577375663831,0.596497132415088,0.471026715596932,0.518158890697108,0.522550477695726,0.529294797267863,0.525993389373423,0.511432548292147,0.527279592853761,0.503727036947629,0.426884147462822
-900,cane,12m,FC,0.495853834609381,0.561326715788602,0.5050449259434,0.480110745462275,0.514575101201799,0.443446498229172,0.475720497383369,0.531058851148393,0.536968126781693,0.595579868613069,0.462386049148327,0.520154458746379,0.524293042012813,0.523344903887897,0.522224469387592,0.522550513822715,0.529639017250648,0.505640030487288,0.444620882487102
-890,cane,12m,FC,0.499278127254571,0.564442857245282,0.51304113159514,0.477800480967182,0.51097832748099,0.44847873223187,0.479236841413572,0.526066479309217,0.542810908888896,0.590757332755802,0.457300426313744,0.519652798428146,0.526531896773287,0.517769745771048,0.516465426306371,0.533288897371797,0.528863859696321,0.505326073085625,0.464634198058324
-880,cane,12m,FC,0.499933995425705,0.571348273623731,0.526924114687575,0.476850526868967,0.50838508172729,0.448935723396746,0.479930462666818,0.521181535501449,0.546284296745513,0.583884090524831,0.456906364641909,0.518333345353855,0.527574842352831,0.51380089197273,0.511340065739226,0.540823926901431,0.528563926241459,0.501302963115513,0.485465848021071
-870,cane,12m,FC,0.497395399901934,0.581121166686463,0.543935454506012,0.476036557696322,0.507357174893253,0.450205035700441,0.476835784249628,0.514174222950976,0.549500701971485,0.574910506511333,0.460402787512872,0.517799556400785,0.526843763614173,0.513614867524934,0.50958835182495,0.547430672726977,0.527878951768939,0.494868798708083,0.506199057480854
-860,cane,12m,FC,0.492434255571011,0.588830328474013,0.561446126899067,0.474943341364121,0.506321197938446,0.454756097794633,0.471915554380534,0.503806391702983,0.554717039423781,0.565291032396399,0.463157111352556,0.516257373435884,0.525056270778111,0.515696228086655,0.511401918617169,0.553297521916424,0.524842467019506,0.488576501986843,0.526199614408915
-850,cane,12m,FC,0.486025146486429,0.591757539962778,0.575372951633757,0.471739559158636,0.503701873638395,0.462760597887618,0.465811723275513,0.491693228177375,0.562663411415193,0.555549347897956,0.464021605059614,0.512822405386456,0.523070461210913,0.518111711285221,0.51495179647174,0.559105309104222,0.519639070765837,0.48501428387455,0.545905138818424
-840,cane,12m,FC,0.480525583212091,0.586772657649659,0.579128780183422,0.46550766032233,0.500169609652152,0.469577567243583,0.460501331456381,0.479919124148738,0.571311208886551,0.547773054986339,0.465908045829619,0.508147796443271,0.521535501807501,0.519580413559464,0.519044726251234,0.565218941635305,0.514577522665131,0.482154948341404,0.563743445815282
-830,cane,12m,FC,0.474888344758262,0.577964637025012,0.577775571263476,0.458311287995505,0.494701687760344,0.474277100826092,0.455967251912724,0.469639073912512,0.579880602173645,0.544323620451319,0.469128418662769,0.503712125751797,0.521375818365922,0.521449141989484,0.521924100089284,0.568018116311971,0.513474716138652,0.479391634139638,0.575393656876314
-820,cane,12m,FC,0.468733838479698,0.570605660197094,0.570882674342613,0.453738619758653,0.486697392433125,0.475836199290871,0.458983573205632,0.461977755122337,0.585130564665078,0.543661171263239,0.470561839127244,0.500088128959488,0.522662114407,0.524351051920818,0.522950328509862,0.567181735426838,0.517882836281894,0.478270582238394,0.579898755583018
-810,cane,12m,FC,0.463651358933038,0.566551098111962,0.558381567419286,0.450917003644449,0.476496140754276,0.478852986084526,0.467604697858494,0.456608938703223,0.583966755771337,0.543053485090695,0.469542263700038,0.497226977156657,0.526138515185714,0.528203018151731,0.522618019519786,0.561183087674239,0.526408572649849,0.481519307731402,0.579665480247376
-800,cane,12m,FC,0.460191879387633,0.565206373070114,0.546962274593559,0.45022172769729,0.462803804745346,0.484621725435835,0.479144938803193,0.45399664291017,0.577651212415529,0.541906760008709,0.465475887390489,0.495345676629175,0.529376268204174,0.532841471579248,0.521487368977839,0.551671933605157,0.536539424464739,0.487977046105714,0.572620263018233
-790,cane,12m,FC,0.459547513079139,0.563238077627214,0.537439476527219,0.450466194935578,0.445028416539447,0.493025648782402,0.492166081860309,0.452118134542428,0.568391695115847,0.539140941665347,0.460400212733165,0.494519605171675,0.53158595413713,0.536924229816671,0.519567666651444,0.54326966171879,0.542872346237723,0.494864225367498,0.561040387562282
-780,cane,12m,FC,0.460334127443441,0.559340181800946,0.530835656386325,0.450601948338885,0.428894079665099,0.504510306246372,0.50450949029965,0.452438826557157,0.560233033336738,0.533659904964793,0.452357350291082,0.494030873455658,0.532559892133377,0.538213126715138,0.51835403786894,0.534764489473633,0.542721990924421,0.501077605610338,0.547655316962565
-770,cane,12m,FC,0.462214857386163,0.55267672755318,0.529729976608345,0.451759109634221,0.417793724349052,0.51826562044695,0.516290361976824,0.455018598508166,0.555877764032703,0.527217667503873,0.443417517104758,0.492702574145433,0.529305968936487,0.536101805764705,0.519349036024985,0.525772442082346,0.539024446546299,0.50793873790247,0.534031157396361
-760,cane,12m,FC,0.466792749815455,0.545645593144576,0.533770328580271,0.455645157818466,0.414119218616345,0.531196173779288,0.52857596603745,0.460444623672199,0.555928456511459,0.521757336746838,0.436690585871206,0.488972198696558,0.525052361228439,0.531132500779542,0.522190531172842,0.51631847757175,0.533914067119292,0.513666589394445,0.521505476921474
-750,cane,12m,FC,0.47104413093046,0.536384546005855,0.539527550356685,0.458907517257987,0.415600716843977,0.539651128118773,0.541778347064216,0.467702978827391,0.557613476292599,0.519108801476235,0.432732092005019,0.480344844081736,0.522185309018664,0.523361014675603,0.5262235969427,0.507026195144478,0.525727319682287,0.516361805408184,0.510017107072556
-740,cane,12m,FC,0.474924551406042,0.525779640136971,0.547402145693618,0.457240244041069,0.419669861770211,0.542429552613957,0.556305684693083,0.474196919011939,0.558473053832748,0.51750188597087,0.432021354643282,0.468866735816168,0.522375600277419,0.514861274927129,0.529579288766283,0.504596320526086,0.514469719550251,0.515185940445434,0.49892298996335
-730,cane,12m,FC,0.478560944751713,0.51576026237319,0.557141461162083,0.45545418349025,0.42403364248558,0.541704828163777,0.572718534660147,0.479232660128871,0.553174682794414,0.517210674082718,0.436347312451616,0.458377091019805,0.525009361678501,0.506519326621808,0.529588752680967,0.506891044112812,0.503345649700702,0.510956265514225,0.484771723033079
-720,cane,12m,FC,0.483042089934971,0.507130957565895,0.567933446245008,0.456422930752819,0.427746018589181,0.541147630427946,0.590122882386388,0.483385649069492,0.545150874856739,0.518562568753846,0.447334358264142,0.45021919010216,0.528255006113661,0.497889343271002,0.523799687040314,0.509249225419781,0.497593535871081,0.504783232675574,0.470402178276063
-710,cane,12m,FC,0.48593120239609,0.500978261718727,0.578646199941087,0.458791054811764,0.431979696899626,0.542396221605844,0.608129650301075,0.485042682653367,0.541570736647322,0.520068659722853,0.461807603429232,0.443897922095429,0.530988618830402,0.491376910158191,0.515018537187715,0.50993063291644,0.495490714866644,0.497191821442463,0.456368680007038
-700,cane,12m,FC,0.485959430327952,0.493263241115416,0.589519662144533,0.462711299910888,0.436810248915188,0.541713470523022,0.623961092320061,0.486131911580321,0.544430278105653,0.52037327217652,0.477452686910182,0.440407400390882,0.534094064593643,0.486160308859492,0.507179063258578,0.50971523107784,0.494750380375172,0.490363987117724,0.442549574413359
-690,cane,12m,FC,0.484144497185421,0.482282610237822,0.596256242058749,0.469001329123974,0.44362887216664,0.537255977552579,0.634469851950283,0.487760391351677,0.54765097842649,0.52211317418401,0.491300006588564,0.440877692251915,0.536709199665981,0.482521069887919,0.501379639284416,0.511141408416061,0.496498220118481,0.48438396256357,0.43202741526005
-680,cane,12m,FC,0.481379991446127,0.472422391705821,0.599521401947168,0.47754699903458,0.452206133045484,0.527918080315283,0.640725495324943,0.489421131489123,0.549276689871487,0.524845986330425,0.499238971678221,0.447081816451071,0.537688927572923,0.479495246140019,0.496015297345718,0.516099067669147,0.496305969725336,0.4799870741902,0.426587641420915
-670,cane,12m,FC,0.480003202995798,0.466037856338301,0.598867362325135,0.486694616384164,0.460881323184201,0.515394129182764,0.642027024969463,0.489250270372869,0.551481156519738,0.530983495406706,0.499514916227927,0.456369488146795,0.5385656998953,0.475767906964592,0.489415948900519,0.521024667717327,0.49210200316548,0.477264042818651,0.424670246488568
-660,cane,12m,FC,0.479129717502655,0.46487825824674,0.594015975191694,0.494221574163863,0.466855024362617,0.503345804432573,0.636156148149999,0.490251095206369,0.550109055782875,0.541364168368945,0.493919476244484,0.466579017703832,0.538961492515191,0.471637855231595,0.481560235624653,0.524374056316173,0.487585040154517,0.475168134843417,0.423706177860294
-650,cane,12m,FC,0.478585114911931,0.467362875583446,0.591617546391379,0.497037893941983,0.470837749114174,0.493532830316036,0.629625428916269,0.490753112891345,0.541627278818924,0.552584399176683,0.489411068928707,0.476999329616735,0.537664245240425,0.467896267384296,0.473662348563977,0.529711272877454,0.483662064139703,0.472836475375814,0.42482086854995
-640,cane,12m,FC,0.48068336840275,0.471666743187174,0.592337090797367,0.499956202017902,0.47473435996395,0.486942757971358,0.62301562917437,0.4907815600208,0.529132360948821,0.561998986386746,0.492529809965681,0.486756139104284,0.533820838064897,0.464461116782404,0.467182764737405,0.539684183103853,0.482445495377585,0.470268858905373,0.426683176691157
-630,cane,12m,FC,0.484245482181323,0.47691127215746,0.596409739051133,0.500502374743062,0.47797894836165,0.486104966552451,0.615918056283892,0.490348232036015,0.512322314909439,0.570429727528614,0.498108931695464,0.495256708722098,0.529293288564039,0.463182659796737,0.463032667283098,0.552385156449723,0.483109129249716,0.468910889749959,0.432044101512013
-620,cane,12m,FC,0.486969281262077,0.482192395534649,0.602994579183487,0.499052023075431,0.479586007905428,0.489864106915807,0.608837890911272,0.491154221453674,0.491702788564284,0.57771725971452,0.503134504210268,0.502995064188535,0.524974293428659,0.462826371820906,0.464048878628895,0.566461546253655,0.48563076884347,0.469355306065546,0.440348591685083
-610,cane,12m,FC,0.488652633646041,0.486540065327797,0.611547877745255,0.494988285185384,0.480670773061543,0.495197846387596,0.604558281055898,0.492588017491441,0.47149073921144,0.581363087207479,0.507636176972746,0.510420700863482,0.518890705421825,0.463798830809088,0.469208904210737,0.577819961498662,0.487475853339646,0.469512027223245,0.447792562447677
-600,cane,12m,FC,0.489018005147108,0.488552510036608,0.619455046886595,0.488113936020916,0.480685907824545,0.502695217122405,0.600158908775869,0.494440812141798,0.452358141311184,0.578811501241965,0.505295937092782,0.516116312241344,0.512188044464626,0.467108468600102,0.476300742931249,0.582735688471614,0.48720899967406,0.468091573139661,0.453473660104694
-590,cane,12m,FC,0.489290089908083,0.486902996324842,0.625004011467709,0.48252618239878,0.477591548501518,0.511903480275344,0.592681162502556,0.495797555556746,0.435586100438195,0.570245072791535,0.493306587658249,0.519877286636025,0.5076371822141,0.471097822096571,0.484213704233639,0.583592253880369,0.486501012379876,0.467373827688934,0.457222683153239
-580,cane,12m,FC,0.491770142066937,0.481936883252216,0.627564911178987,0.483154026367512,0.472350259650087,0.521119068651985,0.580323457686294,0.497483406895392,0.422068986674977,0.560439859989266,0.475201142374304,0.523801078083419,0.506303708711545,0.474327638989276,0.494413670409677,0.585055894963812,0.484836819208643,0.467577592137691,0.459774366886619
-570,cane,12m,FC,0.495583032310506,0.475774011492434,0.6249352899088,0.491676590702653,0.468680524029797,0.529766083369525,0.566764703905772,0.498790052535381,0.410487913713749,0.551491350715233,0.452652594060253,0.527667618340919,0.506868621775335,0.477593415764662,0.505434473237335,0.58774523741042,0.483914537007471,0.468071571132589,0.460909992608701
-560,cane,12m,FC,0.497907533253605,0.470236032017769,0.617799617195921,0.505578890336342,0.466597154100252,0.537297675300069,0.554419447998149,0.498996408952502,0.398736221765672,0.544475529812419,0.430871871268292,0.530569249333216,0.507766799997557,0.484516011519423,0.516274328869198,0.591399097510092,0.483846994608626,0.469799602962754,0.460686286433836
-550,cane,12m,FC,0.499290069033416,0.466895967083156,0.606016415483098,0.519516482328178,0.464402547197555,0.544382673437472,0.54377648291804,0.498618797896969,0.383084950951401,0.538073210965022,0.417485452376743,0.531222855107799,0.504776855156478,0.495069636360379,0.525799656819821,0.598387358047128,0.487116545284605,0.472851817933251,0.459487482485402
-540,cane,12m,FC,0.499208709662257,0.465400561849814,0.590247204312127,0.532834110178493,0.460899104860237,0.552041436507577,0.535010387506885,0.498843912724996,0.371127688725138,0.531420817170036,0.411941712953641,0.529089858944766,0.49921065117628,0.506942647565541,0.531703901312924,0.60541618658277,0.491894217772451,0.476386499610435,0.458513685967172
-530,cane,12m,FC,0.497245112268472,0.464702935470479,0.569739091900463,0.543460823509428,0.456488659314169,0.560623666868856,0.528353169020184,0.500901269750717,0.365800916276901,0.523832488647298,0.414031693251959,0.525344248960614,0.494067880061589,0.517156186889836,0.535362380125701,0.612358111157134,0.494227108639003,0.477045062746358,0.459388551915604
-520,cane,12m,FC,0.496240106710599,0.463782482899065,0.548429867013233,0.549463379674587,0.453881344899793,0.569145715751861,0.525243354665612,0.504132906034438,0.370130669645901,0.515914423984414,0.417955172839541,0.520642271485963,0.490130019772699,0.523110943253766,0.539438377109362,0.618395553896418,0.494154576521764,0.474669275213129,0.459387124600689
-510,cane,12m,FC,0.49695089860908,0.461755001518899,0.530918236436259,0.552979153941565,0.452465877665115,0.576375532800028,0.524441053742364,0.507153447890735,0.3807863575389,0.506807753902656,0.420201036569322,0.514388445573613,0.486482683523411,0.527588553781407,0.543383786126431,0.622913865385309,0.4917812451372,0.470269923031111,0.46100280323351
-500,cane,12m,FC,0.495831436898566,0.460636560321444,0.518873322535352,0.557764408751633,0.45103541485043,0.582423270662587,0.526553694686924,0.507762315082695,0.395385356715371,0.495883284344065,0.419380053721377,0.508056066138619,0.482362123727526,0.533694505050219,0.548924437817004,0.628278001248723,0.490283492253045,0.464060203157125,0.461580835333894
-490,cane,12m,FC,0.492448425294072,0.460586480231207,0.512162808693961,0.5657280066029,0.448787600789054,0.589070646340453,0.529784394233705,0.504242726475911,0.413370000199601,0.48341286897482,0.418556039390236,0.50259557096327,0.479593215077608,0.541200753142945,0.555258117643955,0.633565079504754,0.490575335806907,0.456054402242977,0.464212479397199
-480,cane,12m,FC,0.487582055030122,0.459676998841174,0.511806807669221,0.574696424516301,0.446424983351678,0.592570065753619,0.533964514439536,0.499162031964518,0.432733773364324,0.471212233997805,0.420139659484067,0.497151467257552,0.47887864325358,0.549123457484119,0.561964655588504,0.637514039534108,0.490997235387576,0.446224003041427,0.474718930795689
-470,cane,12m,FC,0.481589868436376,0.458466194365453,0.513915454940231,0.58366404088879,0.446931935894509,0.592753861966132,0.541155745114628,0.493439737087631,0.450590600691122,0.46036339922635,0.421299899435782,0.49178624206945,0.478951829276779,0.557308659840557,0.567347954387991,0.638587624686931,0.493064213093561,0.436261254002155,0.491624373314849
-460,cane,12m,FC,0.47501353861521,0.455301283827662,0.51867648690365,0.589733359278385,0.452578929773481,0.59124024401013,0.551475892656458,0.48820778982517,0.469903267654486,0.45134512270838,0.421912312435964,0.486478716139023,0.481687950961302,0.565658308506819,0.569836023043951,0.636483543936982,0.495717756830516,0.429502419460108,0.509893950007005
-450,cane,12m,FC,0.469768844349279,0.450751869778434,0.527557443563949,0.596055932922861,0.462362717444941,0.587931054017238,0.558760081192645,0.482826149739851,0.491467619960487,0.446933021691161,0.419383621036917,0.481121066742234,0.486411006577487,0.572745958473423,0.572524884779919,0.634762772024042,0.498100468417363,0.427487452912711,0.5274110782247
-440,cane,12m,FC,0.466863029402975,0.446162405074395,0.538253975494793,0.603311316161035,0.475084421035936,0.581872928338389,0.564651616499247,0.476964245532211,0.511787150444228,0.451003678518986,0.41274690634674,0.475981441818573,0.49397069837997,0.57688057158022,0.57820634809326,0.631196309858449,0.49898647420166,0.427907510445028,0.540474829764192
-430,cane,12m,FC,0.467533379163189,0.442488065373785,0.544032014738237,0.612389973807692,0.489119532466789,0.573543134126114,0.5663291033171,0.472500380982851,0.529443976841568,0.461943026250098,0.405886868449338,0.471670973982017,0.503263703685117,0.577590110897559,0.58653033885777,0.625943881303011,0.498725289488707,0.428463942154158,0.548047174687412
-420,cane,12m,FC,0.470326776251512,0.441027392751691,0.545804648551713,0.61973396228083,0.502326774142306,0.565250695849992,0.561738229025678,0.470234471827228,0.546760256273487,0.473291915243624,0.402890743654288,0.470958108181282,0.511598408868623,0.57714500864057,0.595040636091795,0.617352256202813,0.498710949529238,0.427430873866982,0.550502984744483
-410,cane,12m,FC,0.474128472701582,0.439463212099881,0.543586187162688,0.623272433393351,0.513915262408938,0.562926115103852,0.552617241934016,0.467933982484237,0.563613306391611,0.480507848764736,0.40234915295762,0.471515987810245,0.516069859630616,0.574965828318816,0.59997731147734,0.606153468400516,0.50165299576295,0.425452987550224,0.549184845155991
-400,cane,12m,FC,0.47938739761766,0.438239915725084,0.536741811601442,0.623612217335035,0.522631213352183,0.566962109202279,0.541247312911259,0.466169909753782,0.576650548317714,0.48342683606676,0.404422059121239,0.472789249334423,0.514440627245125,0.57011590097396,0.602855182279941,0.59324319625166,0.505381509136176,0.424618418339813,0.545518038051115
-390,cane,12m,FC,0.483793708593519,0.437877831780445,0.530095478644194,0.621055941730144,0.529868795246462,0.57148483431475,0.527259890140076,0.466864404006818,0.585899236925016,0.484379513325197,0.409983189942184,0.473643852850914,0.509696785904948,0.564134845863564,0.602975058377751,0.579355101348696,0.508433395515141,0.42540940584689,0.537221843015122
-380,cane,12m,FC,0.486301971481132,0.437760675144666,0.524165880396361,0.617711505149546,0.535903669427839,0.571685502978903,0.511845009945001,0.472360289301774,0.592799491849752,0.48429202073545,0.414186463201115,0.476155770838626,0.505479010360213,0.557078637624816,0.599738516539873,0.565544081039482,0.507610714645572,0.428069744813018,0.527504074331929
-370,cane,12m,FC,0.487980074540013,0.435815081856096,0.517063869323394,0.611429686826301,0.540306175150364,0.569961698802373,0.497962190035974,0.48007620455669,0.593742930351584,0.484416395766265,0.41655634852041,0.481405499744626,0.500398703151928,0.549901161448647,0.593833284332719,0.555064848223663,0.500865043499955,0.433745177315832,0.518192057188551
-360,cane,12m,FC,0.490321547334233,0.432769706955327,0.507580120929804,0.602330858154276,0.544159708511462,0.567386669353725,0.488993059126996,0.487528861181321,0.590249249596783,0.484579163545045,0.418390199850277,0.487916415323459,0.492782467708067,0.542429323064604,0.584120738241078,0.547427199645618,0.491670320043471,0.439434085557343,0.506187858482346
-350,cane,12m,FC,0.494542334037949,0.429352983169567,0.495363924947225,0.593157496286119,0.547017877089128,0.563909711922847,0.486046697361033,0.494721515498773,0.581389010932453,0.485274766767488,0.422064395213982,0.494070783161688,0.482339906817102,0.53460988423011,0.573069911897724,0.541517188767504,0.483655344877534,0.445086715143551,0.491095740502118
-340,cane,12m,FC,0.499714101729916,0.425678076509254,0.483775151246859,0.583842137911197,0.547042227834294,0.560430774093155,0.487065172377554,0.499725469505623,0.5652138175104,0.487895015266047,0.427611039729991,0.500615717090682,0.47062325368692,0.526807419695154,0.56272138192373,0.534679927285771,0.476946041357706,0.449434077960649,0.474962014960108
-330,cane,12m,FC,0.503962486593909,0.42366483984856,0.47996745978,0.578238439644992,0.545310702515868,0.556464779007132,0.487427412181925,0.502678929068488,0.544471777337642,0.493887201209792,0.433347030813761,0.505935733702273,0.461124686217056,0.521485384789399,0.556351881611095,0.524787974934303,0.471885042627301,0.452159052128621,0.461317624484143
-320,cane,12m,FC,0.507786863475313,0.424731350091992,0.4849258780629,0.5758428912048,0.541769645593838,0.554861141387767,0.485305476020808,0.50443341316896,0.523671324823004,0.501011173258542,0.444159703299457,0.510296662674907,0.455643475662231,0.520986244402539,0.550309177259043,0.515249460549635,0.471587712118631,0.454923967562906,0.448631499942418
-310,cane,12m,FC,0.510795957500097,0.427564468801295,0.494271033059217,0.573908597363042,0.536937204567789,0.55582313058175,0.48326563224861,0.506772869394082,0.50393277791297,0.506129036696333,0.459014900992056,0.514502162381036,0.452771965776327,0.522771195806377,0.544456403076013,0.506263655935107,0.472588575678605,0.46108022133337,0.437076104370578
-300,cane,12m,FC,0.514775128373146,0.430042825570323,0.505711485912637,0.573362825648075,0.532105589865143,0.559793794172494,0.481056000894469,0.50752886083531,0.484613926296536,0.508270950454627,0.474339562498904,0.518861461818398,0.452506767747059,0.523685718446538,0.541814507165125,0.50166332933882,0.473693128794985,0.468775141473235,0.428897047818494
-290,cane,12m,FC,0.519861415427931,0.430480614017339,0.518109068683966,0.573343001622439,0.524401562270261,0.567664375335471,0.483004619864392,0.50723857985929,0.471635251135679,0.508567801646002,0.486309058581875,0.52086345058636,0.454260218733041,0.522756136886301,0.542291613928288,0.501876811608882,0.475981517543784,0.475901691947625,0.425839745727092
-280,cane,12m,FC,0.525968125233586,0.430349288067766,0.527827285297526,0.573545774858377,0.512705514454602,0.576610354688797,0.488608485490064,0.506294341566499,0.46738548875509,0.508800726285571,0.490675156031458,0.519191634743237,0.45756040657607,0.522272799741693,0.54188290235832,0.503490076034051,0.477189932243667,0.482304584142708,0.425827151010912
-270,cane,12m,FC,0.532850966764955,0.433176442384546,0.534375367734171,0.572692056618361,0.500304074128425,0.58427998694681,0.496742867652929,0.504799644622685,0.463017146149806,0.508632824381961,0.489859320841094,0.513205551793538,0.460795181765904,0.522093257297803,0.536915571413798,0.50316462529424,0.479097490525034,0.487467870853232,0.424686270095208
-260,cane,12m,FC,0.538466341025884,0.439612206432526,0.536082108584087,0.571802691115747,0.490428948186677,0.588191185291093,0.504323617625534,0.504234048083312,0.45638640002249,0.50773027096233,0.487783343936508,0.504266355317869,0.462262339417218,0.521432930441064,0.530049595946084,0.498116113143258,0.480405320252253,0.490386499309466,0.423428205549005
-250,cane,12m,FC,0.541593752910508,0.447950041279478,0.535428129757394,0.569486446992192,0.482435952178812,0.587130690237174,0.507341652154232,0.504114153717087,0.45170789064654,0.507800312675114,0.482496157144955,0.494083161448301,0.462742327344861,0.518599206892615,0.521221572991393,0.492328947091008,0.482252725198785,0.491485253604385,0.423116867043636
-240,cane,12m,FC,0.543168398520509,0.456077952333658,0.53336995508356,0.564872830807789,0.474119697282215,0.57972950428876,0.510643788291225,0.502006467740503,0.450676680072148,0.509828822070445,0.473189454417731,0.483722158816036,0.461839302231262,0.513165228467296,0.511530817424599,0.482832093561249,0.487222554651376,0.49333623649436,0.427031422971501
-230,cane,12m,FC,0.541841709926693,0.463449723474085,0.534062511544803,0.563025139342038,0.465021937719021,0.566947959670784,0.514472350765919,0.497354126238307,0.455559032214539,0.513540089951783,0.46033447130074,0.474278113461464,0.459929109633516,0.505904417892111,0.500710165933044,0.472401587054661,0.494498307336683,0.494523530304158,0.432012411758084
-220,cane,12m,FC,0.537957007336954,0.471674089830434,0.535729853235018,0.564637334267782,0.456961923616279,0.551893898974013,0.519539402687748,0.490805289859961,0.465214107391666,0.517716116899073,0.445359003007203,0.465628394657842,0.455554718569689,0.49839933193555,0.487989822298879,0.463233493738091,0.501295216306789,0.495208366280956,0.436711583425886
-210,cane,12m,FC,0.534472461098489,0.481059597705688,0.536244484337265,0.567676666084646,0.45039201376422,0.537390665226184,0.526796612770033,0.484321713840495,0.475253254876952,0.522755120559767,0.430507333318272,0.456839840836196,0.449680900647612,0.490254357354175,0.475620838343808,0.457361711587153,0.506143686463883,0.495407809069914,0.441801129209909
-200,cane,12m,FC,0.530141796598047,0.48744302564579,0.534626234186785,0.570452480307793,0.447509932781164,0.520885179900384,0.535160700162188,0.479600264713044,0.486285928618684,0.527052919477516,0.417218178993625,0.448585176544351,0.44348829569699,0.482558771482624,0.46518969730843,0.45336900277542,0.507963818735637,0.494561446863711,0.448925786350114
-190,cane,12m,FC,0.523572079953525,0.487665847778867,0.533248449111827,0.569958645252986,0.44810697123515,0.502559201385596,0.54267772192332,0.4769639040218,0.501201374358015,0.527889048077799,0.405938253885408,0.443127547554329,0.438010133643007,0.476382591928253,0.454703323957475,0.452100171407174,0.505460154020575,0.49345952044855,0.457401049789662
-180,cane,12m,FC,0.514352695690872,0.485513365690397,0.53356293389572,0.56600389215803,0.45175027150891,0.484242093552902,0.549852690921094,0.476121001436792,0.517381340037176,0.524763352401226,0.399076121052407,0.443153228007834,0.435136012686043,0.473406044350122,0.447483916238413,0.457488732189803,0.50012638967253,0.49277552945303,0.467338868954541
-170,cane,12m,FC,0.505146931072744,0.483716509060639,0.5352159985657,0.558093304221095,0.455822921619018,0.469401545653032,0.558126689639441,0.478008281341618,0.531651659827601,0.518530224607106,0.392792110878729,0.446862392418838,0.437038280433035,0.475061297189673,0.442309467326724,0.466661431667015,0.493441027436636,0.492135460590281,0.47946017033005
-160,cane,12m,FC,0.49631065635038,0.479997930300889,0.536655936184953,0.546560367129008,0.460191803890374,0.460819092222428,0.566728531730163,0.479412591264891,0.540083789371411,0.512205649252688,0.387086786592319,0.452417778667706,0.444748393962555,0.480093689741706,0.439292148134192,0.47586729997794,0.484541349162515,0.489377308027927,0.494698885538591
-150,cane,12m,FC,0.488099105621357,0.478137447334761,0.539372399852318,0.537600077557483,0.465224579468133,0.45727604095346,0.578295296597056,0.479008068945679,0.545688544612498,0.506448285110125,0.381332914013536,0.458143841096973,0.455652312938482,0.48539818379046,0.436394649089134,0.485355267172853,0.47418141343555,0.483844518636015,0.510637237015328
-140,cane,12m,FC,0.481343210465414,0.478349238394038,0.542738136261001,0.531720408751024,0.470614962056191,0.455355443518094,0.591683639465422,0.472513007918498,0.550954104128892,0.500986580677288,0.380563303752508,0.464757995519907,0.467699337446377,0.488844397390596,0.433221185520005,0.494901505413832,0.461369564374577,0.480280172248217,0.524474197518981
-130,cane,12m,FC,0.477618312191821,0.482188479722352,0.542838752812639,0.527224678295695,0.47587984370379,0.452339082533553,0.602488353991924,0.462736282244816,0.55419582752852,0.495044435413975,0.385191607784225,0.472100297612938,0.477908973176675,0.491309331311621,0.432575478032964,0.500878013049238,0.446679696077445,0.480197630751751,0.535690201214526
-120,cane,12m,FC,0.476038234967095,0.488981497706444,0.535722992471543,0.52426992940002,0.480280830162626,0.45089328399637,0.61136565733926,0.450549963521226,0.553657885691827,0.487367508790274,0.392810782338199,0.479256249230892,0.48437605493626,0.49443926877167,0.433887848543325,0.502393821393978,0.434134292638921,0.483395076118855,0.543034292440349
-110,cane,12m,FC,0.476677011186129,0.498192502960973,0.527540992873925,0.51889245075461,0.485477820984305,0.450330181246862,0.620660591986319,0.436787165997218,0.546602311013338,0.476989655414494,0.400472866071968,0.485100628299289,0.487376551630359,0.496550882705572,0.43589436701725,0.497032691860671,0.423491355185246,0.489093204902948,0.545171498960583
-100,cane,12m,FC,0.47926360324469,0.508368986512067,0.519425111544415,0.511903576846067,0.491815247417725,0.450051056282071,0.630513085229487,0.423623862887852,0.53568349211731,0.463767101637782,0.406562820634109,0.489355757709909,0.489015100671711,0.498961072488121,0.436662403721398,0.487203540325357,0.412554797261889,0.496450397633205,0.545150645055018
-90,cane,12m,FC,0.482899786125808,0.52019243092946,0.513756946932661,0.505334976498382,0.49793676025357,0.453231279169445,0.637441477168929,0.414251940222782,0.524501805673513,0.448508552173227,0.413322919021064,0.492012477848789,0.49157203580286,0.502047726432918,0.43774454149751,0.477154515315954,0.406324030830696,0.504001841315885,0.544892204572292
-80,cane,12m,FC,0.488379659480562,0.534306515599292,0.511209269334866,0.499531351085305,0.503656429740968,0.461910841112567,0.640013939859248,0.41156876039268,0.512516935813286,0.437376806521807,0.423996961562873,0.494277811221991,0.494247429727379,0.50521491285474,0.440081778874959,0.466900276810213,0.406549370455476,0.511572937399784,0.541633052806931
-70,cane,12m,FC,0.495149068163967,0.550079891622407,0.510871872473997,0.496817099755138,0.508874874998611,0.473943349285864,0.635094433644198,0.413512170403271,0.503132415071487,0.433862964926667,0.439706129224346,0.495882120294473,0.495445035821354,0.507892591422924,0.444512479762238,0.453409328579423,0.41439398655383,0.51840761135778,0.536778097815527
-60,cane,12m,FC,0.503502701067375,0.568055528862253,0.512607327594895,0.495225414008832,0.515000594726927,0.487303320014896,0.624338629143538,0.418646854940131,0.498193903351038,0.434863534474726,0.458990679743933,0.498332464249966,0.496500349463686,0.510510466436075,0.450629831594336,0.44019380689172,0.426242687384541,0.522824893220498,0.53071050260844
-50,cane,12m,FC,0.513865029954857,0.585016408839968,0.513675080543335,0.495576655638407,0.523340304151543,0.502335591577016,0.613379946471313,0.425282301909464,0.493510480045649,0.43982897661487,0.476142134969399,0.501506897770087,0.49820843063959,0.512008524637311,0.457529540883965,0.430767661838994,0.439770334381117,0.524488601362789,0.522646746828366
-40,cane,12m,FC,0.524048027361624,0.597809344918921,0.51267013966289,0.500408268442111,0.532808464265994,0.515609474434333,0.603100223258225,0.429744362635358,0.488694005370061,0.447029734039183,0.488544221877216,0.504073857143592,0.499762158455003,0.512039911935478,0.464331000610717,0.424318002750135,0.45346753744667,0.521492803989483,0.511131376334517
-30,cane,12m,FC,0.533057209906674,0.606236269776667,0.51243154247682,0.507818042810291,0.540459066933895,0.528167050693227,0.591282023337872,0.431503213357361,0.48915955672388,0.455571195106161,0.496990275455671,0.503925748382259,0.503302776762367,0.513512162771378,0.471639769981593,0.419035154490006,0.46665109243158,0.513014109454833,0.494496264651037
-20,cane,12m,FC,0.541783407114026,0.608759946656174,0.511165176471669,0.514418656397111,0.544475340284689,0.540636022159686,0.576533303969492,0.436930589444786,0.49394464351304,0.462569451473109,0.504258126217037,0.502916372912522,0.508640540189755,0.516691380175919,0.478797760682756,0.415115622163675,0.479173427322287,0.500887281029289,0.476059065599866
-10,cane,12m,FC,0.549654667708293,0.608379688182893,0.508238017760811,0.52088213875452,0.544748649726283,0.548793899430089,0.560830200217845,0.448467901156303,0.500375628392759,0.46700465656181,0.509675294387175,0.500053767058846,0.515698697912956,0.520367860904676,0.483854873623278,0.413039107756677,0.490222642878684,0.4885436403568,0.458999274860299
0,cane,12m,FC,0.554463880916646,0.606179441505826,0.501578543572616,0.525764356578179,0.54218680441454,0.55028610751957,0.546425410615039,0.464327867467701,0.503897561468661,0.467675926498404,0.513060836153851,0.494070617341207,0.521311900444251,0.523561302018148,0.48812881867396,0.414845769203063,0.500113987292061,0.478852819083954,0.44557651817334
10,cane,12m,FC,0.553855786460906,0.602548814419005,0.490817890223384,0.526291866528853,0.536329476883559,0.545045605484975,0.532985794420135,0.482163008115245,0.506684677383561,0.466341788753171,0.5148863755264,0.487157251845437,0.524454817936463,0.527238667994578,0.490978908289408,0.421587541366698,0.510880563418366,0.472555702118646,0.435569196928913
20,cane,12m,FC,0.550073984198503,0.597232581148391,0.479115818260303,0.522135920148978,0.530214590635133,0.53365613913834,0.520678427118653,0.498930575748029,0.509556532758946,0.464152499814571,0.51367770203854,0.482547558763427,0.528804365512248,0.530060071585604,0.492177875469114,0.431133002567093,0.524116856725323,0.468363079592512,0.42957099080576
30,cane,12m,FC,0.544388009194658,0.592121063581887,0.468263915228303,0.513314665858854,0.524623815944625,0.520930220909807,0.509787867261348,0.514569457265473,0.512462537414653,0.461404418599735,0.511030747297656,0.477911804377006,0.539128725908656,0.53037101270348,0.489064602529532,0.440714128078921,0.535158047168661,0.466563668337374,0.426425585718078
40,cane,12m,FC,0.539355264316014,0.587881987085321,0.45431090850258,0.504858535725997,0.520273129872928,0.506636537333997,0.499640165380128,0.526428063050393,0.516331251963902,0.460008555984066,0.509898879332854,0.471439966112083,0.550979585637722,0.529366014837002,0.485593045389722,0.450715796618784,0.543152050252422,0.467674092699775,0.419363077701533
50,cane,12m,FC,0.536445666049721,0.583395297411434,0.434261172847167,0.49823858590872,0.51614918098195,0.490835694208909,0.486684328369039,0.535259527639106,0.521572143486242,0.46012420452605,0.513436042967626,0.463488308018015,0.562123568528753,0.525948171093039,0.483302378633765,0.458916505916482,0.548566809912005,0.468675582494399,0.410334986931022
60,cane,12m,FC,0.535689695104672,0.578144219007255,0.410366339213295,0.4907934970217,0.511924346047598,0.474884037619921,0.464313283705759,0.542868550374124,0.531564123776236,0.459211185573353,0.519885576679262,0.455322210331243,0.571939390123779,0.520895928337764,0.482686549505969,0.463292008097778,0.550962679789547,0.468970987765586,0.401695914923945
70,cane,12m,FC,0.537431250780149,0.573027756835935,0.38921245033715,0.481477759595917,0.508179610025624,0.459529197988012,0.434364664477347,0.548504360581112,0.545364877783688,0.457988463211873,0.531251080994668,0.449024178277757,0.578267722994262,0.516866728286755,0.480706121250702,0.464255694044778,0.549989435870665,0.468282322466099,0.39529186730374
80,cane,12m,FC,0.538643575632478,0.566686084921388,0.371686933861335,0.469527185572357,0.505210802985499,0.445692797220651,0.406560959241266,0.549432424612419,0.557519044950541,0.459902361661631,0.543826632706177,0.445061083122261,0.58189601156704,0.512762041644801,0.477924463564852,0.462908366252079,0.547847255406147,0.465686073179956,0.392654351895078
90,cane,12m,FC,0.538657086931499,0.558900993562973,0.358239612997415,0.456754172190614,0.504270743624825,0.434459785083305,0.387709053769616,0.544054451312732,0.564893206998883,0.467010676858936,0.554896928899636,0.443847136692534,0.583023716342834,0.509540900046487,0.475037946595538,0.458620931030491,0.546490275227168,0.462297968630592,0.393952330655759
100,cane,12m,FC,0.536711866268228,0.550398957602674,0.350744438739468,0.444985742820224,0.505088147333415,0.42846263372559,0.380485266361629,0.534221250725204,0.570650302135208,0.478360630074158,0.560944983271086,0.446830012319422,0.580672960341333,0.506743014691907,0.471921150534587,0.450086571591444,0.545588167633219,0.460023797176815,0.398973017343661
110,cane,12m,FC,0.532620791253336,0.54404669815861,0.35197018174429,0.436076692210128,0.50804495320809,0.428416607252057,0.383584707440914,0.52294949190075,0.574440606237701,0.490167123991402,0.560879059859537,0.451731156540793,0.576402603632584,0.502092224347082,0.469964766110829,0.438958115876845,0.543434591064396,0.459441186328644,0.406455756151769
120,cane,12m,FC,0.527219602068809,0.53979785304654,0.361575652270608,0.431608631260621,0.511903973438113,0.432142045225398,0.395872432882793,0.511398556427902,0.574818288199587,0.502157398475617,0.554305284349686,0.45579793850505,0.571823877495308,0.496590290634385,0.468944367142757,0.429367841784198,0.539448800132469,0.459613003377042,0.4151219605761
130,cane,12m,FC,0.521548534507162,0.535800157634084,0.371435766226036,0.43239028890567,0.516623472628166,0.434896703490336,0.413158558808553,0.499867659935319,0.57086010320843,0.517189755743558,0.539939091606883,0.458141838879507,0.566133654242223,0.490313609319121,0.468499196063766,0.420578655324788,0.533393453995263,0.459462732838224,0.42527342674174
140,cane,12m,FC,0.516092591102141,0.531434401094468,0.376616029729531,0.438406443169311,0.522225340618507,0.4353074018117,0.431644753040859,0.489829145395266,0.564169200559222,0.535881117295542,0.518995970168739,0.45853164702707,0.560573644202301,0.482679532046746,0.470275904776743,0.413294745314682,0.527743115840453,0.458745028366036,0.433994340887203
150,cane,12m,FC,0.511342970006081,0.52694561311439,0.376483921963659,0.450333093381035,0.526084769779629,0.434932827228565,0.449950249543534,0.4831981826312,0.556701598771237,0.555729031854004,0.497273544128637,0.457711493497601,0.556904120494668,0.473979204046179,0.47528860279053,0.413355962850347,0.520037948198789,0.457702272851976,0.4410901769231
160,cane,12m,FC,0.507112802055909,0.524193007111437,0.372728415712457,0.458399267537611,0.524624730832522,0.43453336947474,0.467435445766603,0.478842783738398,0.551248297408795,0.573912918696992,0.47986815826835,0.457133854054306,0.555889197285301,0.465233262623786,0.483838132372036,0.419173690651972,0.510207877189613,0.456787205010693,0.445560506317966
170,cane,12m,FC,0.502982979264144,0.522959869178169,0.372116917576311,0.463280864136835,0.521776691384971,0.4361931163695,0.483804425952437,0.475628553748537,0.551594367805296,0.588472839822074,0.468416290707219,0.459245801075563,0.554594181564479,0.457199663489799,0.493887243429342,0.429305152989568,0.49894055996263,0.455959514660119,0.450367424602299
180,cane,12m,FC,0.497775720097214,0.523747802308596,0.380970671703411,0.466300313765293,0.519650407399113,0.437468529474068,0.498548796018889,0.47363703128406,0.55826415028233,0.598915060950802,0.462854314727587,0.46351226147553,0.55249656015104,0.447734202906807,0.504038913541949,0.440429264699735,0.489688205529042,0.456043632209568,0.459992269814221
190,cane,12m,FC,0.49117646462399,0.525128340085905,0.393400973196627,0.467529279166476,0.518208691826738,0.439398274226139,0.507241412195293,0.474361941910016,0.568528301468915,0.607114407269542,0.458391465194726,0.468697778875585,0.547455316472906,0.440594672382875,0.512726614885582,0.451675186121462,0.483437018191897,0.457905536195931,0.47615531576695
200,cane,12m,FC,0.482985663383237,0.5265256140894,0.409872344716092,0.467750575780815,0.518620730684616,0.44134150195587,0.509087007396222,0.477962779072457,0.580381144736566,0.612910863157288,0.451277901881381,0.473874683368105,0.539424734898059,0.43828035316265,0.517884021088093,0.461027104131456,0.480141314908374,0.46120673129102,0.494027641891995
210,cane,12m,FC,0.473709743264061,0.527901947568899,0.422869933647036,0.467347644610183,0.521280223230781,0.442519665951766,0.506828153446316,0.484194251142604,0.59323235190395,0.614198298136447,0.444026016681324,0.479738390048649,0.530965777155591,0.43905674807015,0.520284024843269,0.468838888140388,0.481018627003742,0.465559399253717,0.510518908511129
220,cane,12m,FC,0.465815860945206,0.529134151948436,0.431077904895757,0.464265575457317,0.526754408846535,0.443410012745141,0.506901197655303,0.491054703079869,0.605136622681855,0.609755830151456,0.444719432084076,0.486515074481541,0.521872838283124,0.441693813754785,0.518858259730097,0.474526062689694,0.484448968372571,0.470064143245356,0.522377835331599
230,cane,12m,FC,0.460427926726018,0.529402285432842,0.436315142339256,0.459164073241491,0.532633708137073,0.445379040839492,0.513759338102361,0.497669602083491,0.612019052058503,0.599430716427949,0.452859085894563,0.492368582408782,0.511394525304052,0.444343336516145,0.51638320987042,0.476123237666776,0.490046891984263,0.474140439284303,0.527585315773278
240,cane,12m,FC,0.45852531990021,0.525375999918754,0.43625562403374,0.454010883708496,0.535541334396836,0.449185061797529,0.520627973074926,0.502854205769751,0.613255595711054,0.586476217322373,0.46428822273288,0.495700154435108,0.501354500050898,0.445930073429698,0.512916181802928,0.469924968349343,0.500149621080874,0.476034562868909,0.527690207287312
250,cane,12m,FC,0.460457088999791,0.519303045244884,0.431165926432025,0.451808834691212,0.536407472426259,0.454387151727958,0.528089742155792,0.506002385951456,0.611901808106141,0.573520348705844,0.475600189834894,0.497847252052295,0.493000095053243,0.445448998080591,0.509207912619871,0.45976692688065,0.511236110368212,0.475707635751513,0.522908309996092
260,cane,12m,FC,0.462263428611952,0.513662914485654,0.42345308678003,0.455877043489609,0.537046299697401,0.459043566388352,0.535872408462481,0.508121198115093,0.606442928536393,0.557655084992722,0.485424990183113,0.500600835936343,0.485236151428031,0.44285128891444,0.507046213748742,0.449597306676831,0.518513407556415,0.47378766198395,0.517849875535971
270,cane,12m,FC,0.464498406685741,0.511025056880453,0.415953685234282,0.46070791081513,0.538183688850651,0.462267816207362,0.541735505163172,0.510019743777433,0.598043739420458,0.537932863447241,0.490881072129602,0.502933158559721,0.476589599514747,0.44054592455258,0.50549384503841,0.441554137445977,0.524917119915511,0.473190977436635,0.512713686481415
280,cane,12m,FC,0.469018831731602,0.511986045346457,0.412114402981024,0.464595014034851,0.537337854844478,0.464259291916718,0.545069291679484,0.512412386231601,0.587160636531216,0.517299608672301,0.489177892511322,0.50312425732308,0.465758441505284,0.440688567053163,0.505665116640041,0.443212546181087,0.532674536576235,0.476193179771563,0.507862897393293
290,cane,12m,FC,0.473295465686878,0.515190510359148,0.412349730418071,0.469209214951149,0.535321313593754,0.46382729849477,0.547041968612168,0.514104159056259,0.576563851280067,0.497300142817393,0.486350269287303,0.501218376893466,0.452934853041444,0.443205135742045,0.509023652380589,0.452426321645357,0.539991192547064,0.4805055062804,0.503917110317548
300,cane,12m,FC,0.477282525523018,0.518011639898144,0.412873115653814,0.470153967084985,0.53277399647075,0.46055853426651,0.551300760446789,0.513104674440301,0.567937892972729,0.477361268406689,0.482371079237411,0.498694753693127,0.439414874564191,0.449724806777891,0.514130207898305,0.460604804153253,0.544124148026045,0.483437057988095,0.500908050373428
310,cane,12m,FC,0.480866983046247,0.517498040359281,0.411326103786719,0.465304909107802,0.530825072134624,0.457958975779712,0.556701565595871,0.508793685743377,0.562231498780578,0.459814108879572,0.476587631764282,0.49700009388546,0.430094957550165,0.460092222412795,0.519604883911146,0.461541117485254,0.546444413718999,0.484845370604864,0.502058136960083
320,cane,12m,FC,0.48306104078078,0.516630675993532,0.409077046988573,0.458660595425449,0.529005193047818,0.459342724100527,0.561045326562088,0.502222326062003,0.563300094590748,0.446543503660862,0.469172799293423,0.49682115158495,0.426018942365478,0.472045338397456,0.526478642717502,0.456846718701252,0.548733209209331,0.484291912420684,0.506318623204072
330,cane,12m,FC,0.485163808411598,0.51514893545137,0.407700532088486,0.457417790837487,0.526852324763376,0.462726052691051,0.563888180740152,0.494452661067357,0.562596846675065,0.436338220652833,0.461282885846472,0.496577947834252,0.427782522047016,0.483992103073243,0.534131476470066,0.453277079864801,0.548950414623538,0.482342796688507,0.511466037635473
340,cane,12m,FC,0.489350290730975,0.512113516645208,0.404815556115022,0.464638796820145,0.524037659863082,0.469421722393965,0.562806181424692,0.486224962088447,0.559769562397616,0.427992239688827,0.456151893268435,0.496372968969793,0.432185953123736,0.493980214034815,0.541588418955933,0.450107120687317,0.54504674966583,0.480345714486572,0.517383396399183
350,cane,12m,FC,0.494376522956559,0.507034598837615,0.401153424086538,0.473297360310789,0.521835672135241,0.478295933774964,0.554086336629414,0.477833546155783,0.553102657215335,0.419857179090611,0.457480260467864,0.496041709148239,0.434674465941468,0.501506507863141,0.54863189603526,0.44718694025668,0.537953504282466,0.47887540174753,0.522904512927013
360,cane,12m,FC,0.499535905863551,0.501539588483313,0.399119956181059,0.476662192863189,0.521175292855242,0.487892647308015,0.539466040249151,0.46988467561677,0.542596245940658,0.413836820592563,0.464163701647318,0.495759087685386,0.433305734465893,0.505345302598584,0.555006365115921,0.446376032987471,0.52775016021092,0.47610521347264,0.528072258993159
370,cane,12m,FC,0.506455243230199,0.496938392203012,0.395889431945724,0.474145602858833,0.523749282344507,0.49554663275205,0.521786858769525,0.463062172754105,0.528526888088543,0.413736446584223,0.473820090036631,0.495440609659831,0.431228119340793,0.506397945924193,0.558830151571902,0.445117800428479,0.51327117397497,0.47020430458994,0.532722191787692
380,cane,12m,FC,0.514931867153349,0.496540085871914,0.394763825294357,0.46863576333317,0.527849021186376,0.503676507797074,0.50242595497271,0.458288682032348,0.51034867829543,0.421027917820231,0.483659966048898,0.495935685904485,0.430101652112289,0.506670647310013,0.559767949837254,0.440099085429412,0.497963789431623,0.46512496049096,0.536441896901508
390,cane,12m,FC,0.522891241790442,0.500324788134791,0.397626084603326,0.459519630632013,0.533021702889835,0.510881170461927,0.481793145731353,0.454737424954433,0.489351842861268,0.429727949118244,0.493138780577816,0.498957623172797,0.431729374595429,0.505197173236441,0.557600830789383,0.43206718642508,0.487083231219927,0.462922566832888,0.540648744429572
400,cane,12m,FC,0.531766415312729,0.504994879896807,0.403766154084117,0.449277298759948,0.537227221977118,0.512068038071851,0.465161912219677,0.452216213156198,0.468585901732764,0.4412598690721,0.500671041289343,0.503215620039609,0.437934777536125,0.501802227701175,0.555080085042291,0.424486774496861,0.477278095122607,0.464437837247655,0.545756805193585
410,cane,12m,FC,0.542473397530434,0.507685764328877,0.411718325319557,0.442352977145419,0.53812749952767,0.508803790279568,0.450675745288902,0.451896248431428,0.449397135016939,0.456653703146796,0.506240001537543,0.506745412946558,0.447063430537143,0.499784756665707,0.552057671789078,0.420815809663339,0.466092628774618,0.468796745040636,0.550926721013644
420,cane,12m,FC,0.551356095205572,0.507119909467469,0.425193202328989,0.438607655802592,0.535003886767931,0.503707299974574,0.434426400151944,0.453092359033088,0.434595393871446,0.474123787578003,0.512235905440611,0.509825279083704,0.457904604456944,0.498782128421802,0.547962164153168,0.420688699391077,0.453195096861825,0.475825508716078,0.552568074984826
430,cane,12m,FC,0.557674113304808,0.502903977394066,0.445438984616953,0.438212613994114,0.529197715899465,0.49568282948172,0.417023343836188,0.453630731445277,0.424142634794521,0.489534937624558,0.516945974914561,0.51298166502435,0.467718698110695,0.498372975441774,0.543923138801595,0.426941716491972,0.440505370737122,0.483761204803256,0.551659736632827
440,cane,12m,FC,0.561402545436263,0.499657843618933,0.46784749054484,0.439056526735234,0.521257539363833,0.48455833069147,0.402466651634624,0.450150046278937,0.417712977907738,0.501506218723849,0.520756531186721,0.517673531407727,0.475929579839531,0.499101279304216,0.539785814352483,0.441377302475249,0.430934298906248,0.491511512233047,0.550983635156016
450,cane,12m,FC,0.560934000795994,0.500574132879297,0.484460233573384,0.441442901468752,0.512045206793066,0.472805729294926,0.390418157895918,0.445381781298136,0.416868292158848,0.512228276972678,0.52472449412485,0.52250305284107,0.479120704539395,0.501580526875605,0.534713553191615,0.459793772010601,0.429869951134543,0.497460626439513,0.551285742593832
460,cane,12m,FC,0.556767965152418,0.503340719382624,0.4956746000064,0.445717463403979,0.501426138475427,0.462917732436434,0.378195342323284,0.440809557932783,0.422477113887088,0.522657747891465,0.528535475263825,0.526605142217307,0.475316032304455,0.506457409767637,0.527045796712498,0.47833426470505,0.433811266749896,0.498959077684545,0.550100962309409
470,cane,12m,FC,0.550663723576791,0.506253990140069,0.503402652698538,0.45073893132235,0.491392974136677,0.456203772705436,0.367200830463151,0.436095820048457,0.427292818240493,0.532345323815166,0.53520190944637,0.530825930566645,0.465295817970624,0.512590079279095,0.515286188029391,0.491395465997381,0.43917217721849,0.500636814630234,0.546096962722032
480,cane,12m,FC,0.544873028770779,0.509674386637994,0.50902371520199,0.453490732974392,0.483255834092545,0.452426682542669,0.362678458857623,0.433511073666983,0.429290539970502,0.540829336208862,0.541783114335041,0.532658559496434,0.454557260779626,0.516547140517169,0.500952210774443,0.500122766533877,0.44607923555548,0.50533469468574,0.540653835585438
490,cane,12m,FC,0.539331600816449,0.514029423013417,0.508974503748063,0.454891613962838,0.477210504959492,0.453769284590955,0.364971658318194,0.434532006189444,0.431333176531893,0.543833426590878,0.541964246032297,0.531645636459968,0.445526965812057,0.517006389460914,0.487364818101202,0.505885467644231,0.453183103250866,0.512734962119311,0.53595282210868
500,cane,12m,FC,0.533726346329313,0.518099605218349,0.50349167912022,0.457478171050321,0.472419170817461,0.45902767350626,0.37287465716538,0.437366767919357,0.436550681737165,0.541760189215488,0.536928835424247,0.529495612022901,0.437921452093603,0.515516169995736,0.474772017569549,0.512980825977833,0.457087352165798,0.519833101087811,0.531154301256348
510,cane,12m,FC,0.529044011459452,0.523210512211026,0.493345231419622,0.462565109341958,0.471896797054414,0.466016692771432,0.386932517391357,0.438104557983402,0.444328104935421,0.537928838381196,0.529574466500567,0.525252118921858,0.431956226998972,0.512939176428617,0.466869341953295,0.523213269389993,0.458338964696871,0.524839839617923,0.527633275944667
520,cane,12m,FC,0.52405790217291,0.53104749522927,0.479248427033569,0.473155206618308,0.477684428201219,0.475549285238115,0.406371662922172,0.432636024422066,0.451834758938755,0.531600519629973,0.522191868426606,0.519693031997767,0.427082102593908,0.511213980738464,0.464686735504222,0.534861599736032,0.459776932140639,0.525678996823874,0.526356699137174
530,cane,12m,FC,0.516172258931295,0.539734686953753,0.463501728364278,0.485691687964533,0.487597615118084,0.487462034158029,0.426058661829858,0.424456943667322,0.460293392392412,0.524296090411256,0.515769088437989,0.515067497714095,0.424380808114373,0.510701945393946,0.469824463651809,0.549643960610229,0.463422568312969,0.520549290969587,0.524225647106405
540,cane,12m,FC,0.506640846217083,0.546731807407609,0.447417083007203,0.499953949101389,0.499148462461262,0.498881772650092,0.441936616131493,0.417805070667698,0.46529981513645,0.519442638909428,0.510908674002629,0.510081192481205,0.423633791006364,0.513013593155489,0.48098142779144,0.565408283862037,0.469454260951626,0.513352791411088,0.521369185231148
550,cane,12m,FC,0.497022136690848,0.548446533108474,0.430026552405932,0.510823609363525,0.509352360526613,0.507008497305354,0.454317968583797,0.413702309649534,0.464978195515794,0.516286927375483,0.508070128881747,0.501981506257038,0.423163561330248,0.51878950855598,0.493760268880232,0.579101544351645,0.477155831271716,0.506051441053546,0.517778032702193
560,cane,12m,FC,0.489401641324394,0.543076237250891,0.411432119041015,0.519320318875137,0.517125768500114,0.514002517785814,0.465993036657477,0.410951993589079,0.463937367011884,0.511577011181489,0.508188879407142,0.492302129046788,0.42704791582381,0.52730398058296,0.507214482327409,0.588042448292277,0.485907729954356,0.499204140851893,0.5125720036426
570,cane,12m,FC,0.482769381665455,0.531955542375159,0.39148149696271,0.526335156468085,0.524829469029361,0.518851777176254,0.476795617200829,0.408811463046464,0.462548977756356,0.50743484446145,0.509145448771008,0.481617725746963,0.434221495102749,0.538003634816294,0.519954095502076,0.589029603572759,0.492617647848746,0.492834540674758,0.506678971567081
580,cane,12m,FC,0.477237857890371,0.519183977013338,0.374286227031134,0.532854410518065,0.533189186536292,0.519527678218216,0.488548289987874,0.408198289960912,0.45815639334006,0.503645098595725,0.511216591804146,0.47141140999873,0.441719615475908,0.549505850406461,0.531955148392962,0.586756614406959,0.495573881137436,0.486390212510161,0.50344975699065
590,cane,12m,FC,0.473972222753773,0.506668449639767,0.363487417754372,0.537647533857591,0.541046641027515,0.512208109595029,0.504883650602385,0.409218912615852,0.454232900236946,0.500773376143533,0.514330557682154,0.462498235056028,0.448942712132125,0.56095193342992,0.541408549091736,0.587170849722313,0.497436194203273,0.481814494053065,0.503198899758172
600,cane,12m,FC,0.47250081811896,0.496391027648891,0.357769349531858,0.53864187802211,0.547464145191864,0.497634310024534,0.522291756484155,0.40798315175061,0.453240811281994,0.498439668861115,0.51937470005257,0.455075617465501,0.456331426016788,0.570513520299569,0.548493353419603,0.585522012070159,0.497591034486009,0.482120580806301,0.504349014669626
610,cane,12m,FC,0.471862998452334,0.490231399226951,0.356329129440209,0.539372927673062,0.554151692684247,0.478099025964251,0.539387325412017,0.406368999015317,0.449083888152677,0.495813310457833,0.524172160661027,0.447520833063322,0.461474893497994,0.576911427934501,0.554611512859535,0.579843805351523,0.498494778643565,0.486276081277622,0.506527757163871
620,cane,12m,FC,0.472705183156935,0.487302672453335,0.358529998719768,0.539228034532907,0.560332457693646,0.456929146258541,0.556859575431156,0.40514571997486,0.439308278518609,0.495114503606389,0.530090858754153,0.440150811544977,0.465475223988729,0.580941887037164,0.559025996495327,0.573134927490695,0.501004928461282,0.491178700461924,0.511259051699392
630,cane,12m,FC,0.475071906608489,0.489189567886439,0.361941456062771,0.538214396457717,0.565616253825731,0.438372541473675,0.574847969149411,0.404909430573407,0.427661206907809,0.498972958221162,0.535942230582133,0.433270783218806,0.469352697773318,0.580863919558765,0.562416474099355,0.565732062607197,0.505954017471089,0.493616919557667,0.517970289715493
640,cane,12m,FC,0.479224086759495,0.494871942170492,0.366535088670984,0.536001432219597,0.570131637696442,0.424935059117515,0.587810720252354,0.407172039735845,0.419947273220711,0.507072653012525,0.538847871405627,0.425202143335704,0.475307403456635,0.578329982492251,0.564484450268153,0.558394293353582,0.511337462699424,0.492248252456591,0.525068300382362
650,cane,12m,FC,0.482705178138463,0.504484442904955,0.368342799386471,0.533599588425515,0.570929304995942,0.417007684097091,0.595794441040277,0.412469126374732,0.41583535275934,0.517466266876789,0.537555710213303,0.418398010072076,0.481168742524774,0.574662765586437,0.566512781630244,0.548544007326387,0.515191905429233,0.488823631894703,0.53102425772899
660,cane,12m,FC,0.484375180702394,0.516847120288977,0.366792892644691,0.533139659441192,0.568774293438057,0.415248472471741,0.600441245811213,0.419187519741361,0.412493076483917,0.526885683548324,0.536312130323697,0.413225127137721,0.48504404042521,0.570611765831621,0.569100233332884,0.533621775529984,0.518236102128625,0.485059972438903,0.537010310199617
670,cane,12m,FC,0.485862609963802,0.529721276414596,0.362817509300935,0.532730594711416,0.566162684470784,0.420773469991016,0.599029967289789,0.427876879235263,0.408080239577416,0.533001486583526,0.535445368736137,0.4109861359123,0.486342460817942,0.567336561542565,0.570222181002167,0.518134302763241,0.520096488076452,0.481086058620549,0.540994403835368
680,cane,12m,FC,0.487928588573796,0.54172679014609,0.360490880271446,0.531904526024243,0.564486618045875,0.429176762145388,0.594777609876466,0.438588513648294,0.405387850170624,0.537036112506709,0.53567312126116,0.412886103141578,0.485270600383136,0.564910253052255,0.570757944477234,0.50471896485896,0.521992147950855,0.477054838398185,0.542117003518329
690,cane,12m,FC,0.49312873328222,0.549919102539474,0.361382497221981,0.531309233117593,0.564350444739273,0.437199862566076,0.58963204233263,0.448990081065289,0.40614065184034,0.541362882733083,0.536896282761904,0.418112614636154,0.482108781920112,0.563260465322487,0.572037687427686,0.492330932055647,0.523779902766362,0.475005340834997,0.539749995525665
700,cane,12m,FC,0.501318421890435,0.556289543667022,0.365933177321173,0.534024729513722,0.563354698749902,0.443859741150739,0.583722693765013,0.455075864391739,0.406837288889055,0.546367855307972,0.539789864859657,0.423714574157555,0.477755030627439,0.561197369650424,0.575952534080715,0.483626137386664,0.525485067868556,0.476241834788714,0.536512346625707
710,cane,12m,FC,0.510952932243888,0.559820428631444,0.373738242436171,0.541340682047248,0.560680675680028,0.449316129968422,0.578183275908939,0.455094697963191,0.408604217065536,0.551545070050978,0.540182446982077,0.428517067516466,0.473521963296413,0.557202815184614,0.582973049510431,0.477893379451292,0.527178565245395,0.479747088698159,0.53531856545811
720,cane,12m,FC,0.520094568357608,0.560262306300955,0.383478855336,0.548429886053929,0.556546611055533,0.456686126673065,0.570048737916423,0.450812934156151,0.414726992771499,0.557022827251422,0.538783756759552,0.432825627473826,0.469289321781206,0.550971688337048,0.590829148960816,0.473657234962485,0.528280850427707,0.483647693543857,0.535610464401908
730,cane,12m,FC,0.526767504281348,0.55701103761591,0.392295011419097,0.552787095466097,0.552025241653991,0.469012980013169,0.558384756213938,0.445961473000911,0.420243582910267,0.55866835008885,0.532323563978552,0.436758838381292,0.464789030831404,0.542465249939281,0.596369329074635,0.470755371850643,0.528843642314182,0.486662090492052,0.537372554117277
740,cane,12m,FC,0.529191573040704,0.550262776825486,0.400705019419418,0.553732613026462,0.547693476585085,0.480325428871708,0.548465053025453,0.442789307638783,0.4222361983408,0.556280842444057,0.517338378532856,0.440428991039697,0.459991616937332,0.532512845718217,0.59941480679071,0.475104189459768,0.529069730312835,0.488689856384317,0.539263461556209
750,cane,12m,FC,0.530611334613059,0.540679154364783,0.406039366999687,0.552177609457666,0.545256987614719,0.487524644126981,0.541931367065673,0.441950867758254,0.427089459533177,0.550903458321656,0.496524761479082,0.44597474984368,0.456757570343355,0.521066638811712,0.601520312362212,0.481880756281678,0.530770050765032,0.49215901526587,0.539506305443471
760,cane,12m,FC,0.532121672852312,0.527782416169474,0.40805007604923,0.544046516339256,0.546647394629912,0.490676680422833,0.541728375063611,0.445665331569097,0.435118998942312,0.545017494293769,0.47621112095151,0.454735150714581,0.454748794179231,0.511552731659155,0.601685720230911,0.488830436600777,0.534618286603126,0.496431150523324,0.537270022153087
770,cane,12m,FC,0.531556998579963,0.514131637901407,0.409853182347766,0.530345254039206,0.548746422286201,0.489500163284457,0.549343801697102,0.454181055915958,0.446099285035473,0.538450687925762,0.461118536082188,0.464715270412351,0.449689505909787,0.504254135168353,0.599263355883803,0.49710774839101,0.541084317387258,0.49967328341206,0.531383781599486
780,cane,12m,FC,0.527559593002729,0.499848980866022,0.414039964531861,0.511763371241732,0.547334497519521,0.485562007160535,0.561513252143717,0.464380420976893,0.457793411170775,0.530805969833459,0.451905232712575,0.473063620298308,0.444777522778557,0.500099534144833,0.595538759390523,0.504338906274231,0.551533124244568,0.501809622773253,0.525624664268397
790,cane,12m,FC,0.522648544270029,0.487773277605426,0.42037459306885,0.495178473304365,0.542420816152667,0.480421160065252,0.576004952400023,0.474845998444182,0.466087988058111,0.525392714220528,0.446643065218117,0.478282472358423,0.441754738343838,0.497782662060238,0.593876276135299,0.511117140732412,0.561806698031635,0.501006787961507,0.52466436328476
800,cane,12m,FC,0.51779692664887,0.477975795228957,0.430374768939677,0.486248591555683,0.535159046726601,0.473923565857159,0.589384132928745,0.486324524280819,0.471793909966348,0.523124203029837,0.442898251254629,0.481728989711255,0.439127542411218,0.497821132943147,0.595361048520909,0.517441485247082,0.57156561296781,0.498664461629987,0.52449936267371
810,cane,12m,FC,0.513093187624494,0.468621097207614,0.443315749555021,0.488376218631339,0.526383329039315,0.467644720145405,0.600343966105057,0.497331845363298,0.478162970675426,0.522485544210407,0.440752053974442,0.48360574973947,0.438399355960758,0.498248325788385,0.597903097189676,0.522850791115915,0.579130434931302,0.497246222493407,0.520460717563802
820,cane,12m,FC,0.508107371568016,0.461160555101431,0.455236168400492,0.497366906361668,0.516801516868299,0.464837268584938,0.611618903439401,0.507174429000121,0.484736625071637,0.52302928022793,0.438937572296713,0.48544590510671,0.440861195115042,0.498114734327653,0.60049700690522,0.530710461503383,0.583840438331505,0.494906638898942,0.520005348650036
830,cane,12m,FC,0.503996012105878,0.454705495766074,0.466155004302433,0.506725770271807,0.507678744024163,0.466318896800813,0.624451038800628,0.517020796344861,0.488319378179942,0.524470060207253,0.43596697930955,0.487011034045824,0.445460800477409,0.498467070239092,0.603127109504647,0.539694611481873,0.588151448333853,0.491338511994265,0.524441291780622
840,cane,12m,FC,0.50098339110459,0.452351505249292,0.477830584433498,0.51343045505984,0.502784124218197,0.474029309840277,0.63831620549676,0.525328027112436,0.488048904838002,0.525753284252714,0.430756964435744,0.488156593649606,0.450888920819845,0.498177820942552,0.608010964088508,0.544715122756569,0.594447081226834,0.489554182683387,0.534408781594178
850,cane,12m,FC,0.498933283461648,0.453102246560589,0.490153736083345,0.516917770121816,0.502917008301976,0.48614806379078,0.649459183817671,0.531531057637525,0.486317279350795,0.525419875548411,0.423612949257683,0.4890841691237,0.457010678187161,0.49868016295563,0.615283397695346,0.545835568479119,0.601112830082466,0.489723613492895,0.548796146943993
860,cane,12m,FC,0.497842272905273,0.453629169500153,0.50444430026274,0.519562709256465,0.505393655463333,0.4987629522343,0.655937230867449,0.534024883598381,0.484307545456569,0.522760279561421,0.418698448396403,0.488138853034624,0.460587314540048,0.501238081464521,0.624539158421866,0.544528522032764,0.605999129019859,0.491938293019005,0.565004602086409
870,cane,12m,FC,0.500284554118013,0.453506650369391,0.517992279194986,0.521818205938135,0.50623709657187,0.509774123185132,0.657561213919255,0.531952201955596,0.479244663774595,0.518110926182923,0.419368938625305,0.485057678674345,0.46114180208377,0.505190905688761,0.635347295649259,0.543080870529284,0.605534264216685,0.497000783003005,0.580307068266689
880,cane,12m,FC,0.505131106583301,0.452250498215378,0.531399815029637,0.524295005502835,0.501947734803785,0.51676398242595,0.657524347617844,0.528636069205477,0.468789416206807,0.511879017065783,0.427448720991672,0.479875162529161,0.460428743248278,0.508035188676451,0.644501414976331,0.54628604239334,0.599884070772174,0.50495202209917,0.594545746588273
890,cane,12m,FC,0.508750346271979,0.447571438357575,0.542406781083536,0.527107260816774,0.494720271020962,0.519179830201318,0.655508114386994,0.526570390740199,0.459632025342989,0.5019207368965,0.437771768844127,0.475255701568231,0.460726962095104,0.507468393371499,0.649098920301266,0.557420872198446,0.592282047029844,0.512066982585303,0.606783631514638
900,cane,12m,FC,0.509787508168156,0.442937078300534,0.549759339925751,0.530428458739721,0.486045294691671,0.518264705156193,0.650520153470395,0.527081033040006,0.45829532720621,0.492144008117485,0.448966727093896,0.471337575984785,0.460238824999739,0.505275141522992,0.647441447965344,0.576964611202771,0.583098130485342,0.517590394491817,0.616097314614996
910,cane,12m,FC,0.508617028804765,0.443675729852333,0.551855397643796,0.53338795272313,0.475665829344512,0.515463605131666,0.648354419967616,0.531285112763526,0.461025163072096,0.484656593057674,0.462412595497421,0.468711511349418,0.456131734070563,0.501237548996427,0.641254861913637,0.598832899189315,0.570443053660663,0.521019865637072,0.620917809560593
920,cane,12m,FC,0.50634727354617,0.453326474752532,0.549903928677601,0.532725749407866,0.465741487948426,0.510697246674527,0.651337259221694,0.53809288644681,0.465017379317441,0.481540444742171,0.478426786277251,0.469133792955668,0.451342033139852,0.495204678946045,0.631748777186934,0.620302220907159,0.560064377955641,0.520026024083865,0.619206204822639
930,cane,12m,FC,0.503345730299031,0.468858414569228,0.54272798386611,0.527297218550337,0.458418610997194,0.505648852851204,0.655131281139982,0.546754870504063,0.467454202901209,0.48385371079068,0.497121753433259,0.471163378884295,0.44727645977508,0.490936082347529,0.620503568787647,0.638727096501492,0.550695412789661,0.516247451196721,0.610013552902684
940,cane,12m,FC,0.499062345249489,0.48465908682843,0.532345277295327,0.518534982987276,0.456543871011582,0.500629508147786,0.654280723865864,0.558022033989597,0.464956819376336,0.48942154705172,0.515154443868863,0.472068095781627,0.448321144325186,0.490955117222646,0.60801683594998,0.650676567418675,0.538509428038443,0.510509920322882,0.596603804019047
950,cane,12m,FC,0.494261195921655,0.498693658624788,0.518436946931191,0.505331399799399,0.459404010424137,0.495411067788728,0.644549027496923,0.567613882133686,0.453345908498595,0.497117520498882,0.53098283053011,0.472404564354076,0.454764766425681,0.494792170546772,0.594164205594798,0.658561264852323,0.523021140329261,0.505039004157519,0.583607571180691
960,cane,12m,FC,0.490803885912116,0.511308726467869,0.504163530398731,0.489751887813746,0.464804524487547,0.493555415830147,0.630357122027146,0.57416314386238,0.437547824371618,0.505693802338013,0.546914389186403,0.474061701223411,0.46286991678977,0.500577943866615,0.580527556284117,0.664205506418821,0.506737361736376,0.501096658726706,0.573172581170422
970,cane,12m,FC,0.488429577886997,0.523608681835293,0.486235202770872,0.474328603214244,0.468371844495285,0.495160118178496,0.620180971242871,0.578215935386222,0.421304783340412,0.51177171814666,0.561852514678505,0.47697699587669,0.46791184505118,0.505875133742128,0.569249553147153,0.666717764691357,0.491531915723972,0.497693464125197,0.56809776516594
980,cane,12m,FC,0.487457536576106,0.534447355939928,0.461276557990335,0.459692907494524,0.469429271461236,0.4974369211324,0.610942063767918,0.580201117487057,0.40968290859271,0.512726087360143,0.575557559165786,0.480996293073582,0.468731286815215,0.510042045299467,0.561617718425472,0.665422349737133,0.480181940590106,0.494677357754991,0.565728324049418
990,cane,12m,FC,0.486712265714978,0.54148028306135,0.434711939963271,0.445355811011293,0.471486407622081,0.497384371592025,0.599009650659478,0.579337577003184,0.406885031825084,0.509579434761064,0.58289051599087,0.486495410000812,0.469177703035793,0.511878706516308,0.556246522218145,0.660014924927817,0.47311922587089,0.4927587913556,0.562299180706251
-1000,grasp,12m,FC,0.490799117764033,0.475518518985752,0.506907646523297,0.456291429604248,0.483789926970221,0.474833863716147,0.466435311094524,0.51076344472043,0.436453781530429,0.461697196655503,0.522208182798264,0.463197081256334,0.433663201480881,0.445830717461547,0.54387390785694,0.375472155294407,0.536251008476395,0.503614399007187,0.538118375336379
-990,grasp,12m,FC,0.491827900496287,0.470490307675616,0.513273653322951,0.440888874053531,0.484033202422463,0.477868139615348,0.466575918466782,0.518287657296812,0.422161430404378,0.467534008497992,0.527111613794917,0.455548678674073,0.436370413521615,0.447117619396325,0.541513511874879,0.361125016315016,0.544547188909925,0.509311021060296,0.535650311357745
-980,grasp,12m,FC,0.493050918272422,0.465789609702447,0.515762540919186,0.43350427148677,0.485950729544424,0.475720126953271,0.46625937762664,0.525863977653244,0.411932818804124,0.475202791610423,0.530461999876971,0.447912612374125,0.439954951465193,0.449926376781675,0.537523557814029,0.350536875235982,0.556446723923595,0.511518992152654,0.531611125684405
-970,grasp,12m,FC,0.495711844033246,0.461430329612947,0.517798104872595,0.432331062402588,0.489350312068247,0.468307971094523,0.466887459880591,0.533472356726799,0.406933439002495,0.483867379502328,0.531781278464164,0.441083582752043,0.445646308623505,0.451959093332492,0.534466802353282,0.340947229193157,0.567214501431199,0.512870292690486,0.525714002093297
-960,grasp,12m,FC,0.499589227181804,0.456371745699667,0.516986879437544,0.432957150902691,0.492198754940911,0.457879847903944,0.466576220653619,0.540596725363924,0.405546031808241,0.492905358190165,0.528372630387308,0.436979840609941,0.455140903002794,0.452915703220444,0.534075983674824,0.334971515782969,0.573709961562747,0.514375329377391,0.520797519771858
-950,grasp,12m,FC,0.503664631286972,0.453039127634558,0.509150684177492,0.435977322050766,0.492959453799573,0.444071707305597,0.468276993977721,0.545199714690007,0.408032781853036,0.501049841489261,0.522219003047597,0.435144606411949,0.4670718252491,0.455504889163934,0.53551408218542,0.335285864596734,0.577123967319768,0.516630260760607,0.515574201886002
-940,grasp,12m,FC,0.506667503235454,0.453147263546821,0.502614549591031,0.439344488467425,0.494395998307509,0.429749333077875,0.472585819221447,0.547881789711971,0.414820993039556,0.508773387271885,0.514560100204283,0.43475442028488,0.479944506040223,0.46100273529119,0.53788303188897,0.338119826099862,0.576891474405206,0.519363892712487,0.508983949390375
-930,grasp,12m,FC,0.508643430544816,0.456033173889944,0.502800271877121,0.444808260583308,0.498224235058277,0.416629422106415,0.480120177880035,0.549149818867118,0.420121907384862,0.513815165253825,0.506084681997019,0.436622065321414,0.490982737235299,0.467442081378628,0.538873116546237,0.346222597650806,0.57513996179024,0.521950994515469,0.500032433142116
-920,grasp,12m,FC,0.511470396672539,0.462391183351316,0.508497546780279,0.454879110745751,0.502526436375777,0.407743866933612,0.488507875779891,0.550010043673018,0.421488369408191,0.515142365891913,0.498842439609314,0.43947316526957,0.498169132443743,0.474751278676871,0.541738355929721,0.361345101445663,0.570628647359218,0.525025592100095,0.48854281772017
-910,grasp,12m,FC,0.513623885185729,0.469594313429287,0.514230138575344,0.47167899072435,0.504561552977126,0.400990759730062,0.495015705975271,0.550634059856451,0.421501330251439,0.514172523751357,0.492226144880426,0.442521194693413,0.503949723351865,0.482488610679659,0.547140580401984,0.383803505019565,0.565391672988947,0.526245187656762,0.475986862890534
-900,grasp,12m,FC,0.514944586805581,0.476388174133295,0.520398270864734,0.492339366679238,0.504976013759231,0.396310616872438,0.499637851548637,0.550651712020973,0.422238775908186,0.512738193455182,0.484565062371857,0.444728350298173,0.508380221550384,0.488846350119516,0.554852840053033,0.407018626958462,0.562737079800892,0.52349924042705,0.465885493413448
-890,grasp,12m,FC,0.514794503332369,0.484633370838569,0.525610621924329,0.510357130564024,0.505959957534268,0.394381487891997,0.500147848320477,0.550571686125329,0.424374290104042,0.511035875782022,0.470173340413096,0.445268523973987,0.511691908057389,0.493824016410341,0.562684070133766,0.42474450730228,0.562741000927142,0.518715369228314,0.460340138393971
-880,grasp,12m,FC,0.513846445531141,0.49425001930112,0.527065010241206,0.52497444454909,0.509515635016009,0.39448597855837,0.499377319958584,0.549576903419132,0.426438270794876,0.512419726315206,0.45247152182571,0.445241084934849,0.515801467795927,0.497704266458538,0.568985034678691,0.435636061584816,0.562982742509505,0.514686623984568,0.460770795754042
-870,grasp,12m,FC,0.510772132891277,0.503903953563346,0.524966279725794,0.535425214343603,0.513515764878326,0.396599714763001,0.500174932328959,0.545578280241921,0.428786309820157,0.517479760644451,0.434898009734271,0.446953869213907,0.520529634655114,0.500988312564462,0.573017189261374,0.438515149308727,0.561259694066799,0.510234246695037,0.464974270160464
-860,grasp,12m,FC,0.505464279917126,0.512868397244634,0.517996732131205,0.540760885140618,0.515819714389052,0.402712296568028,0.501319290966194,0.539028368241333,0.431901318132957,0.523106016588286,0.420079364657044,0.452364964461793,0.524432880750681,0.504517406905903,0.575907347447314,0.43358475472324,0.557303816363166,0.505210124600705,0.471855523099334
-850,grasp,12m,FC,0.498733443914373,0.52113733932003,0.507465265026486,0.540940010478848,0.515894259903731,0.412362767740291,0.499706131583611,0.532039009126406,0.436316162434799,0.527881404315942,0.409376860125386,0.45910880084927,0.525886208142967,0.508021221714912,0.577989254348267,0.423884535168516,0.552461648957757,0.499386535755387,0.480681076243946
-840,grasp,12m,FC,0.492253737165198,0.529050711660247,0.495875272548732,0.5366100394483,0.51255522704323,0.423689695869158,0.49034207329181,0.524541539257561,0.439811833878032,0.52984913594446,0.404641368402881,0.464932195807823,0.524302167508754,0.511315497088122,0.577640620475287,0.416244771008273,0.546231818280708,0.493038825339208,0.489973090972353
-830,grasp,12m,FC,0.486923981540712,0.532642938336648,0.484953126690489,0.529332208695859,0.505405081384866,0.432656511450711,0.476288994362901,0.516297170269257,0.445016484075837,0.528286178101992,0.406992089259917,0.467697843491809,0.52066184958903,0.513737530490274,0.576154842939534,0.411855379495974,0.53926373330163,0.485898300589989,0.497039522900748
-820,grasp,12m,FC,0.482181899040745,0.532968084536024,0.476940088337684,0.521445196902785,0.496450064966331,0.443247997189444,0.466453467107425,0.509600154682963,0.451831568671004,0.524069858560686,0.408636567371566,0.468476314575467,0.516899714182589,0.514994647347688,0.575353558971039,0.408023156189211,0.530028494955952,0.477906817702974,0.4998530018114
-810,grasp,12m,FC,0.47971423267933,0.530873421852868,0.473433936664385,0.513664584087417,0.487724578760064,0.458576580868852,0.463888836350138,0.507203657972922,0.458804339994763,0.518953973741385,0.413368708242893,0.467594044326759,0.513208209949416,0.515779229750301,0.573664064034747,0.406873204633715,0.520210494165272,0.470580716835762,0.501541270297027
-800,grasp,12m,FC,0.47830270219796,0.525588291276753,0.474838539559235,0.503302086093733,0.479575966659871,0.478182347720423,0.468305912889583,0.507037639582574,0.464000678456217,0.514579587508344,0.421189062220736,0.465215565972339,0.506738709063955,0.515258135391605,0.569515420995215,0.409261105129338,0.51042645474687,0.466134956381414,0.503123451794817
-790,grasp,12m,FC,0.4780197700092,0.518418226713917,0.477181104212078,0.490762866336533,0.473582175605673,0.500581887142778,0.476128978164939,0.510475285029529,0.466397821776741,0.509568320545949,0.4309168319504,0.462910127809043,0.49844259201499,0.512534053379352,0.563718997532065,0.413350510092675,0.499906726739859,0.466191630016367,0.505748862416073
-780,grasp,12m,FC,0.479162573552665,0.512531316964423,0.47969560212828,0.479475440178362,0.471014463113423,0.521469405056914,0.481403777612837,0.515688032351815,0.468069930909743,0.50183337522904,0.440474627088798,0.461573850671944,0.490579926769633,0.510519793509866,0.560506709121621,0.421071999956182,0.489400394468611,0.468859062871792,0.510388493176117
-770,grasp,12m,FC,0.481315067150258,0.509457267428873,0.478733864339127,0.471047066841109,0.472385818151934,0.537357951800235,0.48484853071451,0.522050100883895,0.471740811906217,0.493915902691494,0.452101266558817,0.462197071199747,0.482085279743456,0.509382548829068,0.560174473447473,0.431171920886448,0.479709980012312,0.472572231598902,0.517186840012828
-760,grasp,12m,FC,0.484169835525267,0.508159099824422,0.477188891123471,0.46504962957216,0.477551443641532,0.546075311530582,0.486046839179916,0.530211592071093,0.477629767375606,0.487101072491331,0.46718355439596,0.464283638563813,0.474250758656317,0.509108233946185,0.561697130570403,0.441375977509757,0.473019851948202,0.476282537883238,0.524744421297297
-750,grasp,12m,FC,0.488257900263615,0.507382068898584,0.478210989353671,0.461047563960364,0.486233765190691,0.544956693466531,0.484447751540152,0.538460931050575,0.485252468516181,0.483057312900161,0.485739978077627,0.468263357551169,0.468540298928694,0.509799876876961,0.565485308959286,0.450076995641528,0.470665848137513,0.479210414848297,0.531118567536788
-740,grasp,12m,FC,0.492307289395733,0.506967964311619,0.481113619179155,0.461511601697319,0.496650965783395,0.537241368032822,0.480031557610487,0.544424437043604,0.495106124240474,0.481773706452917,0.506229375947728,0.47322228484824,0.464034202306524,0.511158876044928,0.569353850895192,0.459032548579349,0.472078743953514,0.48298806595026,0.535956825571436
-730,grasp,12m,FC,0.495339477974537,0.507073067758234,0.486045692167925,0.46713605342037,0.505187099078166,0.527659364253725,0.480150350288787,0.548044845381493,0.50579804953674,0.48156604353446,0.526094348732957,0.477713582802301,0.458390608559542,0.514324179475497,0.573069653503669,0.465944950129971,0.474955846452092,0.488408724412074,0.539932670669824
-720,grasp,12m,FC,0.498105234224835,0.507305225433755,0.494139975725127,0.474586003175662,0.511423177699896,0.51859324923435,0.485937506562023,0.551996845881022,0.512333646585819,0.483298503293335,0.543789594917763,0.481456209659507,0.451951358282572,0.520005452066547,0.575645415576289,0.470831929573343,0.477570915689248,0.494637003057818,0.541244036486718
-710,grasp,12m,FC,0.500359897436903,0.506663881367037,0.504488995019165,0.480575357040255,0.515656323488757,0.510954114399989,0.49610133533075,0.558453912741371,0.5135206713703,0.485790607650692,0.557469650472547,0.482816007880046,0.447142914117754,0.527063041608776,0.5756465414509,0.474244840340379,0.480685869605678,0.501436060510496,0.538338754096184
-700,grasp,12m,FC,0.502079329688584,0.50485186041321,0.510800231367501,0.486947897848914,0.51827413259628,0.502215723581413,0.50822938199668,0.566108679949745,0.510960025178652,0.487343372346273,0.566889340918949,0.483226413729566,0.443690156336484,0.5338658563085,0.571607306297443,0.476531726352442,0.48491884931542,0.508397905380201,0.532264111224021
-690,grasp,12m,FC,0.504027338829864,0.502502760886915,0.516581120231623,0.493783470402516,0.520494672306498,0.48902037723074,0.517349858704735,0.571676906924462,0.508973225309928,0.486142434799048,0.571020312665739,0.484669503745757,0.443164340113448,0.541053869041677,0.564018233390558,0.47787621046446,0.489054676351838,0.514338908519876,0.521986433866956
-680,grasp,12m,FC,0.505037776727412,0.498582486006545,0.521751971061711,0.499378699230898,0.522077483020425,0.473664294452832,0.521506781027405,0.573820017908808,0.509898625625091,0.484816950176421,0.57007059133597,0.488158939391234,0.448530636666705,0.547628012115477,0.555082428025878,0.478254489636087,0.494109864272351,0.519370043410872,0.51299535170053
-670,grasp,12m,FC,0.503442211714542,0.494444095792063,0.525915944148533,0.501639950161135,0.522093679722864,0.457349153224041,0.522554128305537,0.57297111259251,0.512785706060132,0.483593158906018,0.562928014267818,0.493263482990971,0.458475294606931,0.551895680512722,0.547003553273896,0.480662005223427,0.499777188214227,0.523314622877383,0.506708109265843
-660,grasp,12m,FC,0.501271454906734,0.491456951834129,0.527476593514973,0.498895494946679,0.519903826692189,0.441555245636553,0.524373539383753,0.56858176708282,0.517087474863129,0.483412966858771,0.550276507605284,0.49930186736336,0.471727512087431,0.553950096598429,0.540260959374546,0.486726802320517,0.506158728103708,0.524458429129781,0.499982011683075
-650,grasp,12m,FC,0.499852603071601,0.49086126390205,0.53060718374263,0.490766474183547,0.514857166205449,0.427339201670576,0.526437016970219,0.563642795482485,0.519852984295136,0.485713342505099,0.534137373551125,0.504475202201033,0.484270300237403,0.554532604376293,0.534557649403202,0.497845151704325,0.513737580812684,0.52157161167371,0.492992400846499
-640,grasp,12m,FC,0.498100760959756,0.490560772896389,0.534712872872528,0.480929255825739,0.508608473843204,0.415457480669216,0.523314294266894,0.558897534908823,0.523427588347749,0.490848118592267,0.518753739670693,0.509247117554376,0.495609851042493,0.55590594980201,0.527210262863169,0.510838119788471,0.520653249135834,0.51535000196519,0.483042198529409
-630,grasp,12m,FC,0.495401429064953,0.488075434803632,0.536771591068609,0.472346390476116,0.503021606288955,0.407885613169146,0.51636241782218,0.553246768909975,0.527034619609083,0.498167701289695,0.502779452992113,0.51446082643695,0.509817486500032,0.558119455161604,0.518529563587136,0.52418614842218,0.526602867897418,0.507617498042975,0.469951549000376
-620,grasp,12m,FC,0.490125725802332,0.482605705059874,0.534111204849597,0.470326087056497,0.498678584620068,0.404956444711709,0.511547994649433,0.548113171530897,0.530640832106824,0.506397036546125,0.489745446597361,0.520651422823234,0.524324996210845,0.56056322863926,0.50937652613695,0.538272247421882,0.531041180764412,0.497615451337486,0.458852555422646
-610,grasp,12m,FC,0.483470782668695,0.476023708404394,0.526092116087241,0.47467645101412,0.494594228311731,0.405202380083088,0.508834493632293,0.542176363119801,0.534822012457676,0.51351139269581,0.484614622494509,0.526286108542871,0.536257554979618,0.563505404139546,0.499627261854886,0.553021078962545,0.533885574386405,0.484077295617475,0.45013166613399
-600,grasp,12m,FC,0.476767104649684,0.470055758420033,0.513476981106986,0.484647037884786,0.490474395478764,0.409186881928012,0.507739029325864,0.534874980604434,0.539760056776677,0.518090199513326,0.486463719324237,0.53056146238134,0.544865327223501,0.566442450001351,0.490339319977021,0.565291635404341,0.534822279448573,0.466911407062611,0.442780902183759
-590,grasp,12m,FC,0.469252877286982,0.466195725158898,0.498542973615718,0.498140490176229,0.48654562576225,0.421124869816595,0.50457586681354,0.528488511677858,0.541814203422015,0.519741062997754,0.492569609327706,0.535263857299842,0.550058460884407,0.567896117329583,0.482930368042187,0.568600492708573,0.533541449625789,0.449068880753376,0.435795441532588
-580,grasp,12m,FC,0.460203590516709,0.465573736019514,0.482895085281222,0.513672358223339,0.481973558926262,0.437148428711,0.499915999228769,0.524408050797603,0.541373384662565,0.520024241248004,0.500597872947837,0.540145304637236,0.55158587715873,0.567098938332524,0.478105926607528,0.562223872198439,0.533241023984885,0.432266834562994,0.431330816768613
-570,grasp,12m,FC,0.450888882874559,0.468075951217649,0.469144026590593,0.529725306424035,0.476696533474087,0.452226867742866,0.494224810503675,0.522519075215627,0.537759495585231,0.519455434575081,0.509097710093934,0.546389154869607,0.552225381684316,0.565951983859456,0.476779373778983,0.550097065141074,0.535085362210045,0.416649932552064,0.432050557763612
-560,grasp,12m,FC,0.440843292419045,0.472355724765262,0.458685039830484,0.544057890107682,0.471864667134624,0.463467337164656,0.488708838934212,0.520544110009845,0.532721361180295,0.518388532389585,0.518274181005254,0.55392785809699,0.551839529602294,0.564797472073007,0.476660388924013,0.540346612179166,0.539388564572618,0.40553480383479,0.438586294021038
-550,grasp,12m,FC,0.432983227266708,0.475770333722668,0.451085875360848,0.555335784932936,0.465597393539472,0.471501240998147,0.486760432070814,0.519377202431257,0.528092172781452,0.518314591963831,0.52765226543698,0.561854706415324,0.548118946751957,0.563423106116471,0.475564822230781,0.531551143533494,0.545861636186742,0.396873761349024,0.448378765526439
-540,grasp,12m,FC,0.429283792219516,0.477483818613957,0.447065590071199,0.564808349954098,0.457004196807416,0.476394428864713,0.489362299314018,0.521039441356687,0.523223756563289,0.520366030346152,0.538830735965302,0.569797257861363,0.540998229397893,0.562376056314432,0.474390932135072,0.526450528940108,0.554699225584455,0.390315025848256,0.459157648256201
-530,grasp,12m,FC,0.428270336379354,0.479008645978369,0.44397461489511,0.571281024692761,0.447651454255538,0.477430579626306,0.497593352220365,0.524427890183186,0.517842674851359,0.523372440196161,0.548696766128062,0.578602988590163,0.532188214178272,0.560909249294283,0.473854501299144,0.523884720274749,0.563763861136299,0.386908675696782,0.465873313474888
-520,grasp,12m,FC,0.428449553422988,0.480350100271956,0.441406491225621,0.573714532268778,0.437715771935772,0.474700161063253,0.506440385389639,0.52859957894325,0.516001591717248,0.525584742556078,0.553442470649226,0.588311931529428,0.52649873333115,0.557103474164823,0.473414300997779,0.523654627073385,0.572770928001665,0.387134802024926,0.466193310342377
-510,grasp,12m,FC,0.430678408396755,0.480439236963871,0.440772038635623,0.57211674627245,0.428919312765219,0.466937567633763,0.514167206824307,0.529519743465732,0.517778015711267,0.525474657083056,0.5506795193561,0.597622965142773,0.521068909919548,0.5521538765059,0.473061336559812,0.522525798558916,0.579555441090802,0.391072032006746,0.459270166268026
-500,grasp,12m,FC,0.434611189921711,0.477970207767281,0.442479412414699,0.568252772391658,0.423015374661637,0.456668251315381,0.521144232543546,0.525820630194126,0.523280785542943,0.525124659691089,0.54286338524811,0.60493026909643,0.517832928552157,0.545668485698313,0.473746860779874,0.520034399141513,0.581497085680096,0.398705692992594,0.450180766272196
-490,grasp,12m,FC,0.438912613541435,0.475171965991585,0.443627726900603,0.562988185682148,0.418601460241897,0.445654905459328,0.530147551774091,0.518329842785345,0.534352773091236,0.524550117818219,0.534160094389308,0.609898522320615,0.517921570999716,0.537479527209354,0.475637549323672,0.518046535177388,0.579849461383328,0.407509486600165,0.443195730515379
-480,grasp,12m,FC,0.44268351064945,0.474295553731831,0.443550014734809,0.557840840911494,0.415117309642284,0.434322626822305,0.540738540027012,0.51117343173122,0.548141526435324,0.524094764352873,0.527835997339392,0.611885906206782,0.520314389053609,0.529497618728479,0.478932926365319,0.517050427855105,0.572685735143246,0.415338208909114,0.439684161958745
-470,grasp,12m,FC,0.445985498239072,0.477054047692523,0.442053147159769,0.554017280164073,0.412212221992162,0.421072885664098,0.550435671052634,0.50728514424292,0.561291069466687,0.524940634582632,0.523367871716784,0.609834174948145,0.519548805725511,0.522393965805688,0.4837878186191,0.516237636118322,0.561751540357889,0.420961965432589,0.437814465779528
-460,grasp,12m,FC,0.448172352710043,0.482974183174226,0.43965246478954,0.549617747505654,0.410342405136675,0.407311715462631,0.557274359097476,0.507208874716792,0.571071214630258,0.527454904027512,0.519516011030322,0.604606702986774,0.514220734434136,0.517218547444739,0.488904701123097,0.514869206527735,0.548985032412925,0.425509019745968,0.437441331023204
-450,grasp,12m,FC,0.448069802002594,0.491124818448778,0.436975068725737,0.545017844834192,0.407848619497166,0.395585076669656,0.558743408791889,0.509566988984906,0.577043272596652,0.530623308858803,0.515030258003341,0.599193037688905,0.508399359862308,0.514095711739457,0.493839488010203,0.510834020513209,0.535259895491041,0.427560746283035,0.437990547530136
-440,grasp,12m,FC,0.44743213282477,0.497911778476495,0.431353968343578,0.541226050250077,0.403700531772438,0.387934281261111,0.554719637583161,0.513338308350707,0.579895208701616,0.534903878697632,0.510081867035516,0.592401667983388,0.504095161294654,0.51401300760372,0.49956484161915,0.501427474586621,0.521560233909023,0.426923603511701,0.44098328165605
-430,grasp,12m,FC,0.447655937027491,0.501839313919791,0.424691554305022,0.537196245386812,0.399417930714514,0.386343812397766,0.54537462359393,0.51893324971776,0.579258213254565,0.539512760788141,0.501332778483533,0.584737829669948,0.501997832735574,0.516878249611743,0.503037033468565,0.485215233260224,0.509663022594927,0.424308177806042,0.443176347330909
-420,grasp,12m,FC,0.44818728025707,0.503773004432279,0.416863485613164,0.534344152181318,0.396077581413877,0.389207582272527,0.5299823158856,0.524800975912785,0.575306114354754,0.542860599653322,0.488836372393094,0.577981318027879,0.501083061637023,0.519678132970474,0.503338875295466,0.472327884121309,0.499693065598219,0.420059911635679,0.443140323560885
-410,grasp,12m,FC,0.449646539415946,0.504105493658266,0.404155853110249,0.531302341030873,0.395779293712967,0.394437102107728,0.510676969033706,0.528878182276509,0.569500156931467,0.546874558612315,0.472968050823282,0.574078338388503,0.500368814100617,0.521270006093494,0.503700030733734,0.467063291232268,0.492692933677187,0.415200875765164,0.444861448944146
-400,grasp,12m,FC,0.451789269912943,0.505420472239004,0.388821175652914,0.527180676016976,0.396946188278251,0.397038919859894,0.490405337689047,0.530496102542446,0.564711070142371,0.552937063047417,0.458473592499415,0.57257443102698,0.497512527652484,0.522574722879789,0.503981857396512,0.464030307314009,0.489677677585737,0.411811194405097,0.444873274869728
-390,grasp,12m,FC,0.453534944817347,0.508491439748523,0.375365303239259,0.522429858043734,0.400853538512793,0.398991280747021,0.471932176740391,0.530666720379163,0.558264464019641,0.558559491761518,0.441884613660277,0.5711510003993,0.491367311208362,0.522395703498918,0.506536388455229,0.460143287147423,0.489527488448269,0.4104311836756,0.444432168626547
-380,grasp,12m,FC,0.455656011193809,0.511605939330927,0.364286393955672,0.516510591249644,0.408262201617711,0.402049792902089,0.458429120003671,0.530730228192128,0.551773534264392,0.561807773704466,0.42314101849375,0.568124879719903,0.484859697465516,0.521348636240783,0.512803914302172,0.452339095041256,0.4895933693159,0.410508366237999,0.444591111379239
-370,grasp,12m,FC,0.458557483400854,0.51334887772274,0.355191378691671,0.510999336073698,0.416940589191952,0.409281323246055,0.449463290404923,0.529395861763733,0.546906883780719,0.560659332967726,0.407674572571222,0.56328115985164,0.477404536638208,0.521190437005193,0.522688236292725,0.444143224025823,0.489567029159328,0.412225552094742,0.448124082183456
-360,grasp,12m,FC,0.462513400904419,0.514335527879093,0.349005565932124,0.506459529268655,0.423591299411451,0.420871101547104,0.444443592639156,0.524426561087021,0.54409370313837,0.553871283366784,0.400613266694549,0.556377121681467,0.47131157385975,0.524089184726525,0.534325175141325,0.438236028658742,0.488662912362573,0.414838991151051,0.455434791166774
-350,grasp,12m,FC,0.46782504642654,0.515004144724111,0.347782011187893,0.50534984867344,0.428514611331168,0.434124154280238,0.443422863354908,0.517580079599601,0.541791438131389,0.542008141777319,0.399152994707291,0.549595076282128,0.46951405214889,0.529604182818414,0.543648719082215,0.434091000684808,0.487259843235979,0.417884883502909,0.463168971755888
-340,grasp,12m,FC,0.472569786922214,0.514432511643298,0.347851392813677,0.507271129940992,0.433043753795189,0.446025662831824,0.443912440768191,0.510349589884803,0.538947229214659,0.529064987973519,0.397757246526691,0.546028557753281,0.472136141880657,0.537819376297186,0.549257858807935,0.435524191531554,0.485328746250766,0.421418064083056,0.472806776155613
-330,grasp,12m,FC,0.475361221044692,0.512058925334461,0.348033710932664,0.510600210899281,0.438434776843596,0.45465522264695,0.443103587832761,0.502498631010323,0.532636001204612,0.517843987509327,0.392789566482938,0.544876045961562,0.476438853217536,0.548612027863239,0.550945190888571,0.441546660609471,0.482245978057583,0.426784498453413,0.487249787920769
-320,grasp,12m,FC,0.475629577871311,0.509315548688328,0.35067433980564,0.515957454599341,0.446252833856852,0.459701609625935,0.442480653112867,0.497743869360595,0.522931779624471,0.509989923074563,0.38650248685195,0.54521273540154,0.48116795894313,0.55895920004698,0.548712020680351,0.449287625942324,0.480249822444543,0.434142419935315,0.506454250790027
-310,grasp,12m,FC,0.474767935020495,0.507201185020177,0.355081024624173,0.522586703923755,0.455308539608322,0.465098688220518,0.442708551813417,0.495840847564619,0.509703881275145,0.503196426557455,0.381243931992629,0.546196358588199,0.485429905219041,0.56867053869577,0.541382369785888,0.455657432658156,0.480610094516527,0.440405921153366,0.525665596687211
-300,grasp,12m,FC,0.473380387900502,0.506397101636732,0.359071984962705,0.528910464947291,0.465156110854841,0.471229898718067,0.442102455284121,0.495844748953682,0.494340451782051,0.49619380640427,0.375808881196795,0.546375360406265,0.48936331049687,0.575943800429017,0.529682747303166,0.459763981199101,0.483026453716802,0.443782690370319,0.544640023419756
-290,grasp,12m,FC,0.472445094381396,0.506965987030491,0.362664369225548,0.531068494073846,0.474565902647692,0.477253205798796,0.440755573316604,0.4957151801853,0.479766072306694,0.489177844352258,0.370860499944171,0.54562292075772,0.492016730629939,0.579317971597289,0.518369334819347,0.462130595878719,0.486826307424146,0.443320512991483,0.5601309934175
-280,grasp,12m,FC,0.471545797023271,0.50855309436293,0.364315210810095,0.530469586966142,0.480768887721603,0.482123193827137,0.443105126839494,0.492998763734054,0.469489344282809,0.483521577768664,0.368527715741121,0.54518353692008,0.49579827005037,0.577230479124729,0.508874282766396,0.461329765711693,0.492570339900008,0.44126168508237,0.569361435255392
-270,grasp,12m,FC,0.470862222312086,0.507148376067006,0.365685248705083,0.528128877576193,0.482797735138975,0.484933462719005,0.451404343623658,0.486702929463791,0.461400722241589,0.480483517043239,0.368944253717759,0.545342072631567,0.501111497725098,0.571950646827151,0.501270648964868,0.456361619242569,0.498973979823286,0.439378003199666,0.572844314296626
-260,grasp,12m,FC,0.47080768117556,0.502356946568439,0.367199303745583,0.52465849078044,0.482238370600299,0.488110162602353,0.459606505942579,0.478139005423798,0.455045875030162,0.478521391296053,0.373241609226927,0.544347095016002,0.505885079703248,0.565215700798846,0.496621212387435,0.448519078634395,0.503371044504476,0.438743637676026,0.571967062986844
-250,grasp,12m,FC,0.472890040603493,0.495982525939619,0.374253312472744,0.521228175949001,0.480223119119169,0.49135645603534,0.466587864705538,0.469869761656337,0.451624379174843,0.478511831490607,0.376756079209456,0.542933943650661,0.513430450337806,0.55785626122548,0.494075446276841,0.441370949671628,0.504641685984942,0.437585003744438,0.569465516623351
-240,grasp,12m,FC,0.473696781143281,0.490990591969834,0.38278780168909,0.519715737108498,0.478896530650053,0.493375196685699,0.468712091837477,0.46394640079094,0.453229611104401,0.482203347924191,0.379674459474126,0.54283638652389,0.525509309609043,0.550136553760189,0.493425310805074,0.43431824407723,0.503451099666166,0.43712008945366,0.566280828383165
-230,grasp,12m,FC,0.471828846048824,0.487027258063489,0.392436738135214,0.519973922189139,0.477052428324837,0.494560896070649,0.464430412981627,0.462522555170882,0.458444946965999,0.484932772118149,0.3849227613546,0.544612978435859,0.537428265808465,0.543420605486302,0.494174679446873,0.430397835620031,0.503095952678014,0.438782611736117,0.562663769947949
-220,grasp,12m,FC,0.468807725312112,0.484993848528551,0.39972334247158,0.522366170862578,0.474802222771486,0.493542009537503,0.456419201266961,0.463319282152237,0.466070656099942,0.487391187531104,0.39212089958584,0.546847978522327,0.547856888912757,0.538572994554201,0.496898892574943,0.431710121780437,0.505441362933288,0.441547657770366,0.559873841292561
-210,grasp,12m,FC,0.465657442401151,0.487363402484664,0.401274463680757,0.521423722284991,0.475508453671975,0.491170440014003,0.450734530243671,0.463778213160362,0.473688851349284,0.490940690162624,0.400746982159379,0.54823663096606,0.557003528198898,0.535977257978132,0.500158369875238,0.438161363501209,0.509304872842897,0.443601930146191,0.555842686647773
-200,grasp,12m,FC,0.463539295300527,0.492730717222123,0.397970543893209,0.517444061999655,0.47728307975268,0.492311552542048,0.447628829391491,0.464859051067831,0.48005049722924,0.49439373528473,0.410536654122061,0.549311590193696,0.565817812917572,0.535474161139469,0.506268413691793,0.447608732787075,0.509959260367392,0.444966264340639,0.549239966078621
-190,grasp,12m,FC,0.462380702632912,0.497759746231887,0.395011826689921,0.510784945428364,0.477362004551405,0.496505422835438,0.449371954401608,0.46569980532428,0.487011018911343,0.499474540795005,0.416817802402877,0.551574974090402,0.575202443364494,0.537171595994426,0.513886683183328,0.458250027251815,0.506817658181473,0.446708399210329,0.541683701529697
-180,grasp,12m,FC,0.461902980443426,0.500748229084309,0.392258419690968,0.50573046356851,0.478332430125037,0.50165101011979,0.453197492304679,0.466487531518195,0.495521759377473,0.506405221378201,0.417829671387173,0.555029875809212,0.586167244672601,0.540707470190537,0.522184401408936,0.46927866836705,0.501767927551934,0.449961784161668,0.532688177403416
-170,grasp,12m,FC,0.462003770923587,0.50019184961587,0.388401917999848,0.502845546689092,0.481974711475965,0.506228514680453,0.460227291544522,0.465426070614252,0.504081704478794,0.513736377369943,0.415401508448216,0.558914957600697,0.596409151061055,0.543979326691221,0.531673807832712,0.479389251131575,0.494949439178185,0.453951659040616,0.52141940695062
-160,grasp,12m,FC,0.461433928588979,0.49852932398542,0.386450127656808,0.501473184148416,0.489076771579538,0.508855058415672,0.469847032605557,0.462919901488632,0.510570622807738,0.517277015582968,0.411063267605778,0.560827859713474,0.602369180247826,0.54630246251686,0.541979243647545,0.485697210559184,0.485788112699671,0.455356770308406,0.509564884965036
-150,grasp,12m,FC,0.460917207839236,0.496783252861145,0.389260575961558,0.498030539746239,0.497607118002962,0.510427115231289,0.478642408814572,0.461839219998538,0.514592824365204,0.518335389823314,0.405190911820867,0.559841493890192,0.603306351721271,0.547757842768735,0.552709580854851,0.487883659563451,0.47411411022897,0.45593508589571,0.497709960103784
-140,grasp,12m,FC,0.460175059190413,0.494688173627725,0.395144053362725,0.492828384258466,0.507190045900516,0.510716253128036,0.485304195913963,0.462354356348623,0.516426945008942,0.519085315026622,0.396756095170185,0.557968474745356,0.599717207495039,0.547327074258194,0.561170199933692,0.486715814624598,0.465579326591374,0.457797686759984,0.484685205627007
-130,grasp,12m,FC,0.458583639805998,0.490709066767415,0.403481341457285,0.484841665925647,0.51687403832003,0.511707092107538,0.492635692200583,0.463881671612378,0.515662753537002,0.518810850044183,0.384222768825138,0.555413894859066,0.591604310398972,0.543662335101951,0.566145237970825,0.487132625387262,0.457738801436936,0.461149395607036,0.472127607309358
-120,grasp,12m,FC,0.456356114119491,0.48488849711623,0.415521377897556,0.474005479787936,0.523374095719439,0.513576766098468,0.501923799236126,0.468152428340513,0.511311916057908,0.5160676115271,0.370477581962723,0.552132519861815,0.580121459109901,0.538302827320894,0.566921764932559,0.491405753071677,0.448077797190947,0.465177963852732,0.461788504254805
-110,grasp,12m,FC,0.452996727638474,0.48022288148294,0.431574308244973,0.461497061634673,0.527261674507297,0.514885376738745,0.511726895190317,0.475123888614489,0.503380730435481,0.511929028976311,0.360135898706357,0.548507218411783,0.564550618354271,0.532767312023927,0.566365112293613,0.502431442576587,0.438918704856724,0.468480289997983,0.453929130709744
-100,grasp,12m,FC,0.448549336117145,0.479053708120266,0.448413150020621,0.448111602812537,0.529201219379446,0.5155579861291,0.52206098568019,0.485250947075625,0.496221669997139,0.507887645268067,0.353734095816023,0.544215970993781,0.545776768020021,0.527563993761496,0.563729628211256,0.519979638672901,0.43031623978892,0.468680917395565,0.449611872704586
-90,grasp,12m,FC,0.442235281123024,0.479613910336977,0.463531506453648,0.432324420075866,0.52866375852926,0.512372228174288,0.533032475270503,0.497582258738273,0.491433676147914,0.503520933000001,0.353713672556234,0.540059336244979,0.526283087887353,0.524321307299545,0.559415976229174,0.533524351299029,0.422090486450039,0.467672358650906,0.451148625422513
-80,grasp,12m,FC,0.432979193425038,0.482815960110163,0.47548247207233,0.41642474788647,0.527194528707267,0.506886547571813,0.540891991504099,0.509005805281262,0.489564388933439,0.500785892756365,0.362770730210357,0.53660619324774,0.508493064479296,0.523331404149913,0.555093645965858,0.539634840193352,0.414896324562184,0.467693767395027,0.453131226450996
-70,grasp,12m,FC,0.421963504663553,0.488466448244154,0.485124554959512,0.406323883328872,0.524643735565146,0.502319608759094,0.541099102778657,0.51815491330566,0.491498959312054,0.500053228674082,0.380805865436628,0.534432109223067,0.493014217769431,0.523086875583807,0.551521303676468,0.536716521402348,0.413064649275449,0.46927365879127,0.455740718292958
-60,grasp,12m,FC,0.411610338387992,0.495234934703096,0.493246813917306,0.401828344498479,0.519931305812659,0.499005925150381,0.535361986789098,0.524671283763324,0.493647762448855,0.501011691383092,0.398966040289076,0.535026092546445,0.4798084249883,0.522925091050505,0.548589227180537,0.530124534800483,0.416547045709647,0.472707361757014,0.460983084494378
-50,grasp,12m,FC,0.401575039183133,0.50104927914189,0.501780731209402,0.402754411957895,0.513951604928962,0.495567579402658,0.528958081624705,0.528385686765649,0.495462139227616,0.498594963432102,0.413244588136182,0.537827990676925,0.469284254038294,0.521452587045458,0.546289582926706,0.524022367501187,0.421714699916484,0.477892830754837,0.467549325584696
-40,grasp,12m,FC,0.394686758798232,0.505675102851362,0.509743884876793,0.411290419531436,0.50750599612739,0.491588647266611,0.522913619829596,0.528462068324634,0.496509057206335,0.493120832647278,0.425138917891209,0.540606083071148,0.461022203364915,0.517449293564458,0.543385900759059,0.519577779117752,0.427386208347532,0.482782463748303,0.470926279281181
-30,grasp,12m,FC,0.392709035753661,0.509204820816451,0.515145562479585,0.422880701825093,0.500831069166977,0.486335902646861,0.518270041942396,0.526191997780672,0.495684940217613,0.484765470941353,0.435456397129289,0.541433859498317,0.455820478641048,0.512300011158876,0.536850071099778,0.516511757024796,0.436002818530921,0.48521850102905,0.471961887750072
-20,grasp,12m,FC,0.395647959183035,0.509640225294785,0.516813971178058,0.434478431483958,0.495670669975957,0.478829205068,0.514490152663878,0.521028183671646,0.495349220327569,0.475273500482665,0.446565186963684,0.540162188945982,0.453949962666214,0.507897885795814,0.526530462496401,0.510394952804409,0.447626158343471,0.486321354971097,0.472323681273067
-10,grasp,12m,FC,0.402869968691664,0.507238161241026,0.514974127858531,0.444763134022039,0.491239324536781,0.473378243616888,0.517674787491319,0.513547566874279,0.498459106296627,0.464543936481017,0.457806606443208,0.537093778577135,0.455809441922044,0.504217969587947,0.515255030847895,0.502860689509308,0.462063881756211,0.485980729029897,0.472222589132846
0,grasp,12m,FC,0.41449062253925,0.50349657297993,0.50846600445697,0.453672049794265,0.486916461158378,0.470057442351247,0.523817476469335,0.505433255838245,0.505750616221718,0.454563211180192,0.465117230459282,0.533219927480354,0.461072036644973,0.502303977811145,0.504226371240209,0.496581934221082,0.480430797142754,0.483771379568483,0.472605364719358
10,grasp,12m,FC,0.428608841712211,0.499223804534155,0.497115721048922,0.461748100501779,0.484285478767847,0.465221057937733,0.530131676272012,0.496045429280095,0.515757790635457,0.447776482601911,0.464842962985611,0.528196900699439,0.468503276664912,0.50202961971503,0.493816060604191,0.491682030461171,0.50198060542716,0.479380066777913,0.474268907431901
20,grasp,12m,FC,0.440947983000396,0.493211993595757,0.485513413916505,0.46981256384248,0.482912658740051,0.460248167624785,0.534575169407736,0.485248311922721,0.52418990885757,0.444618662792798,0.45894568825679,0.523507358900308,0.477834774112637,0.50181557311844,0.486490303565743,0.48603033024407,0.524821363864897,0.472963554078991,0.473933035179316
30,grasp,12m,FC,0.44924371135028,0.486228524612838,0.475543464685494,0.478768727440923,0.482782684639552,0.458178829589316,0.538439381394321,0.472526897431433,0.528556735872274,0.445961159606998,0.450469595610958,0.519826549942454,0.488217275585729,0.502786112688143,0.482689385345852,0.483584279193472,0.545940557397253,0.467843825601766,0.470988091818332
40,grasp,12m,FC,0.454434467986652,0.482841502874941,0.468731630171214,0.490682924477964,0.483838721881224,0.461305823893371,0.542430325856199,0.460213375895925,0.531352363992919,0.450364488034337,0.440018032257138,0.518294152237976,0.496913342543499,0.505067182234047,0.480788547288923,0.482688627045805,0.563973280206163,0.465345862974389,0.468059918683525
50,grasp,12m,FC,0.45842631555973,0.482221379901505,0.463232632369966,0.506391912796183,0.487244187300988,0.466930903839824,0.54495143918785,0.450894212060457,0.531371264991551,0.456246961588223,0.428437944338553,0.517821687973859,0.501163860887096,0.505631428060198,0.47936583518934,0.480594548550696,0.575374206020524,0.466147432342926,0.466527862973179
60,grasp,12m,FC,0.463458788596932,0.484168551091405,0.461167545214449,0.520778024908094,0.4917395598508,0.471965463715468,0.545993460609062,0.442528808062401,0.5265438018628,0.463419249287151,0.419085396120414,0.517194895826986,0.501589152234814,0.504862312784819,0.482110916461272,0.474381765635856,0.577716468822364,0.469630080619724,0.46553959382993
70,grasp,12m,FC,0.469553032748581,0.487920346809972,0.463768732766475,0.53024526276769,0.494183466631002,0.477596193639263,0.543468120284352,0.433025624505053,0.518972469210098,0.470805983868288,0.410649380840911,0.516518325314535,0.498577071776061,0.501631013008558,0.487742020816738,0.46340859245621,0.57309408000371,0.473637024976556,0.467123052394482
80,grasp,12m,FC,0.474817825102849,0.492923957555104,0.471817723409311,0.534813505055296,0.493898676919758,0.482966414939391,0.535878023042963,0.424700013154549,0.511224648549003,0.479177835991496,0.401864957748539,0.515346492433956,0.493753816572953,0.496969501509933,0.492175035720394,0.449544251312794,0.563678947426939,0.478985029679322,0.469691447180592
90,grasp,12m,FC,0.477784039624821,0.498252216799517,0.483121278940425,0.537677791393523,0.492266739067654,0.484247535757757,0.526392641109974,0.41712283430224,0.502793574938011,0.489531387594325,0.39239144849132,0.513023513499926,0.48840015453961,0.491127374411272,0.494696245868033,0.431495291533812,0.551189683692469,0.486660123910842,0.474132665076987
100,grasp,12m,FC,0.478778472283566,0.503673099733958,0.494002336838947,0.540481037065704,0.490550734148359,0.481646220785964,0.519000253427164,0.410417814381435,0.494075460521212,0.500551449973594,0.385763074084434,0.509955206464492,0.485144591285008,0.48490209004107,0.495486318164173,0.41192446389868,0.538561184638857,0.494774584471304,0.480140545406458
110,grasp,12m,FC,0.477825520551861,0.509548286164361,0.502572717940822,0.541472442408626,0.488847853740713,0.477555923335464,0.518973494002648,0.405164459205495,0.48524866213348,0.510279236334817,0.382094293150801,0.506042624909214,0.482552639503151,0.480096311658432,0.493325073773012,0.395788988793556,0.527968970688951,0.502733133018862,0.486065203533775
120,grasp,12m,FC,0.47543092712758,0.515867615826308,0.508227693104394,0.543383941722721,0.484819249364595,0.476008405416439,0.523209162950909,0.404251998915373,0.474028462332828,0.51821356353088,0.381963775377725,0.502648821937407,0.4800285148893,0.478499229790645,0.490130560019603,0.382062858307815,0.519060997275666,0.508804265237869,0.490962058121342
130,grasp,12m,FC,0.472539332588359,0.520909976481455,0.513959460111643,0.54797468497386,0.481596928019298,0.477646213226567,0.529761237616056,0.407808769334266,0.459354298256884,0.521658568975566,0.385509234088464,0.500251769223094,0.476497284179349,0.478218911801161,0.490290538354102,0.371621582268904,0.510620369750062,0.513461286859416,0.493676979135057
140,grasp,12m,FC,0.470427663570858,0.524481731363519,0.517021392965266,0.551635650307365,0.481407231530577,0.477859026182969,0.536198684840145,0.413754375122852,0.447116251017203,0.521343959902276,0.390597425511493,0.497955839079159,0.473679744873768,0.477358139916276,0.493393615158786,0.367646986816489,0.503509357312645,0.519111597702981,0.495561250723229
150,grasp,12m,FC,0.469788319829849,0.526741302004219,0.513635897812614,0.553535814589589,0.482436350603669,0.476152533257807,0.539571397300941,0.42204858655719,0.439773661070107,0.519417916149531,0.396097851298926,0.497589302858229,0.472157895816853,0.47633262425432,0.495923020503142,0.370530552746545,0.495675355585588,0.524982384952732,0.498674943905389
160,grasp,12m,FC,0.472627984437235,0.525409577756353,0.509241482502329,0.554838619690516,0.482422823620375,0.471911878511307,0.542354819743207,0.431968282673014,0.436745791764687,0.517706557861451,0.406066169831453,0.499652031215561,0.473026929928266,0.475961166969004,0.497013308732349,0.380784082349888,0.48600336441182,0.530695111500683,0.503515471423381
170,grasp,12m,FC,0.478404965806688,0.521349482136175,0.507137197889966,0.555378862126683,0.482707020004407,0.468637291641091,0.544763063199241,0.443011046363489,0.436133906640009,0.516760756392525,0.420140014312906,0.502336825078038,0.473243901300294,0.476603820969817,0.496309739823048,0.394851245253365,0.475575400375293,0.535283140952242,0.508879784095701
180,grasp,12m,FC,0.483046098206728,0.517781766517562,0.508029236856583,0.553269902896295,0.483960896318635,0.466467105588968,0.549301263957149,0.45517732336737,0.432279579261796,0.516157573483387,0.435889448334777,0.506230847194908,0.473560433114936,0.477892614566035,0.494921563706401,0.407798573089794,0.466616539954356,0.540156703190893,0.511719950868251
190,grasp,12m,FC,0.484139232552949,0.513785019396483,0.508842902489647,0.548929753872791,0.486098240176162,0.463352629034902,0.558623568100281,0.469023080090933,0.424528661735816,0.516359749379369,0.45292696277627,0.509452527682293,0.475428179869686,0.479633633518279,0.495079210507775,0.422442278383428,0.460859015215858,0.54501967993738,0.509197663128619
200,grasp,12m,FC,0.480541163683996,0.510588518235816,0.508951200015404,0.54111822175676,0.488666045155401,0.462957486310581,0.569657080158072,0.483638174844468,0.416018898921585,0.517333758957536,0.465579047047523,0.51025729279987,0.478957007016877,0.485012290341251,0.496388285328702,0.438936195342761,0.458572305202894,0.54789172856886,0.503436026177778
210,grasp,12m,FC,0.474846699326439,0.510275186268892,0.508690206312204,0.532558805943122,0.49090463108605,0.466013646350925,0.581235548187508,0.497009195160213,0.410754301614799,0.518348262830958,0.47168126923657,0.509258620235587,0.484251055710254,0.49408521017699,0.499269466241664,0.458328876605958,0.457884059355146,0.548802762602237,0.496665322691734
220,grasp,12m,FC,0.469621179771771,0.511819084660725,0.510430790023007,0.526330931877684,0.491769894109241,0.470283449222956,0.594678933493605,0.507580080918468,0.4081026509919,0.519325359437686,0.470256767869323,0.506265213886266,0.489678116275134,0.505143605669082,0.505155881765282,0.479940022304979,0.458049772231262,0.547502283529508,0.492560023472249
230,grasp,12m,FC,0.466807358268063,0.514227636248107,0.514576840512732,0.524390360103055,0.491089711072252,0.475491798852342,0.607853970353441,0.516963705654536,0.409718069519843,0.519997863854209,0.464409084334817,0.501648642410551,0.494576344381765,0.515624004185929,0.512883506316159,0.501664785909999,0.459243244241872,0.543979190556366,0.494181015736954
240,grasp,12m,FC,0.466069748307883,0.515565163131644,0.520184709563363,0.524851412795232,0.490070740578936,0.481651099429975,0.618082308388031,0.526466992609512,0.418991149111833,0.521743198794388,0.453979377781754,0.495408704748588,0.49943784763983,0.524677136374251,0.521022414745339,0.519847639278453,0.461805178282158,0.542130126949478,0.498874990652898
250,grasp,12m,FC,0.466123862629655,0.515417322523977,0.525913388761547,0.522593867018862,0.490876250221638,0.488639592852892,0.626409146499793,0.532812404960128,0.43485830804353,0.522239474745608,0.439272526559895,0.489056536210092,0.504625650323434,0.531005376314623,0.529146158480388,0.532196124395503,0.467092204808167,0.541826372943839,0.505236529855598
260,grasp,12m,FC,0.4666908633747,0.515528951115842,0.532266776905819,0.516316381157628,0.494554915485083,0.496328270852163,0.629916980671332,0.536954365643942,0.452280454140686,0.520635884465916,0.423310081944539,0.482949500653551,0.50948892144422,0.53466106624582,0.536009135942504,0.537026989071718,0.476019877528047,0.542235003353018,0.512742997764684
270,grasp,12m,FC,0.467888972983294,0.517023306705722,0.539750319538095,0.508208145826176,0.499127247805933,0.501630160402063,0.625340210386563,0.541212347505552,0.470855588244594,0.519313714104612,0.415104885420355,0.476128527232822,0.513281416274716,0.537741611009806,0.541567997194923,0.533208667136081,0.490209309721773,0.543912778297666,0.517446362379688
280,grasp,12m,FC,0.466332388518946,0.519085714971139,0.547176293297276,0.500248131772652,0.504117179988228,0.50188815406713,0.608547642504955,0.546348989478161,0.487933502757375,0.519166333804331,0.415054360001988,0.470203924517101,0.517265094027359,0.542178260128607,0.547270717733092,0.521419166628093,0.505371436057793,0.544979952694767,0.519045977461166
290,grasp,12m,FC,0.460171057203244,0.520717741457009,0.554467870249774,0.494746411948797,0.510749829253973,0.498632451614472,0.589274303236709,0.549520241977245,0.50142472204714,0.520560431628308,0.418342824227626,0.464919093465265,0.520826650090027,0.548199648340772,0.554199325486974,0.509078449982004,0.52102027883864,0.544608276214786,0.518849844226912
300,grasp,12m,FC,0.452666883570327,0.521306226809597,0.563369403850711,0.492447436360515,0.519672026402662,0.492377504983547,0.570008877972727,0.549403181990204,0.51268290464611,0.5206660561761,0.421090050729558,0.460850024954463,0.522760820994668,0.554088984249109,0.561210505864995,0.499711812825955,0.535966297901683,0.542198384198229,0.516733017086223
310,grasp,12m,FC,0.444130647165028,0.519901060760049,0.572241629027235,0.49489435949817,0.529730998037928,0.483740653614128,0.553977271026447,0.547464398744878,0.523119644889061,0.517034327462303,0.424727150476146,0.456322573664276,0.524215260369,0.558590712298259,0.568166960579132,0.493388344082218,0.547566100223355,0.535931179528319,0.51508705498396
320,grasp,12m,FC,0.436029275357097,0.516326487789349,0.580792833426121,0.497723906775978,0.53876594513481,0.47239507962704,0.54321517778683,0.544856626211449,0.529430783551017,0.512563607572989,0.429983786595501,0.452284992185688,0.52517406889196,0.562387721028078,0.573458164896836,0.488314817960791,0.556194799603985,0.526369681969672,0.515274558369402
