Time,Condition,Age,ChannelPair,connect_overtime_LA_EEG_12_P04_CTS_MTH_chanpair_12m.mat,connect_overtime_LA_EEG_12_P05_CTS_MTH_chanpair_12m.mat,connect_overtime_LA_EEG_12_P06_CTS_MTH_chanpair_12m.mat,connect_overtime_LA_EEG_12_P07_CTS_MTH_chanpair_12m.mat,connect_overtime_LA_EEG_12_P08_CTS_MTH_chanpair_12m.mat,connect_overtime_LA_EEG_12_P10_CTS_MTH_chanpair_12m.mat,connect_overtime_LA_EEG_12_P11_CTS_MTH_chanpair_12m.mat,connect_overtime_LA_EEG_12_P16_CTS_MTH_chanpair_12m.mat,connect_overtime_LA_EEG_12_P17_CTS_MTH_chanpair_12m.mat,connect_overtime_LA_EEG_12_P19_CTS_MTH_chanpair_12m.mat,connect_overtime_LA_EEG_12_P20_CTS_MTH_chanpair_12m.mat,connect_overtime_LA_EEG_12_P21_CTS_MTH_chanpair_12m.mat,connect_overtime_LA_EEG_12_P22_CTS_MTH_chanpair_12m.mat,connect_overtime_LA_EEG_12_P23_CTS_MTH_chanpair_12m.mat,connect_overtime_LA_EEG_12_P24_CTS_MTH_chanpair_12m.mat,connect_overtime_LA_EEG_12_P25_CTS_MTH_chanpair_12m.mat,connect_overtime_LA_EEG_12_P26_CTS_MTH_chanpair_12m.mat,connect_overtime_LA_EEG_12_P27_CTS_MTH_chanpair_12m.mat,connect_overtime_LA_EEG_12_P28_CTS_MTH_chanpair_12m.mat
-1000,cane,12m,FC,0.508518574316726,0.5338337967105,0.414292954839547,0.55928358443733,0.418348724623013,0.465829050721377,0.566306906547566,0.499819539222291,0.57182739496906,0.527279869559711,0.486286394174458,0.478571278158856,0.435065403894339,0.465448798632547,0.522688752388149,0.510073809779802,0.556616718046688,0.504002762139153,0.501321754546479
-990,cane,12m,FC,0.509373216624047,0.536136762238408,0.41336070093295,0.553944455334721,0.416250149664268,0.467434706205248,0.563331921317746,0.502185393836172,0.568802917936835,0.530507587018628,0.483585619529037,0.475736959007721,0.438075267136706,0.462608121592814,0.5219028184402,0.512836005737942,0.556625670231568,0.501048353817121,0.497027834592526
-980,cane,12m,FC,0.510244563852084,0.537925794404116,0.412823173006731,0.54761665456665,0.414185203747432,0.469081227019232,0.560520464742413,0.504500951107673,0.564889318893608,0.533725692742484,0.480370083498667,0.473306601969123,0.440330350158893,0.459569854476221,0.520906990493306,0.515393034845413,0.556111858576904,0.498041136621349,0.492269781171812
-970,cane,12m,FC,0.511042298861834,0.539314638225371,0.41317444978839,0.540252369146282,0.411957404785826,0.470561566723297,0.557488634691076,0.506438530434587,0.560577915014855,0.536576141862464,0.476990883501119,0.471288662745443,0.442167584076611,0.456163346608738,0.519679609473927,0.518068927361482,0.555465645356272,0.495174507079348,0.487130661485445
-960,cane,12m,FC,0.511732984729289,0.540178422212171,0.414901096837253,0.531762041801103,0.409553982377932,0.472364917966261,0.554430077403716,0.50868574156397,0.556421210025923,0.539594409627779,0.473069839071383,0.469521755303809,0.443688776144656,0.452670084767847,0.518573721454474,0.520678263191473,0.553635246660444,0.492142615071592,0.481854963747605
-950,cane,12m,FC,0.512155270312892,0.540024227064919,0.417645509602399,0.522533710862652,0.407056547170582,0.474723358497744,0.551565836237238,0.511416368727966,0.552415709124974,0.542183749874014,0.469590550656711,0.468008315347203,0.444727832610629,0.449215529260535,0.51762674553093,0.523187002858768,0.55071063291105,0.489241984295623,0.476477332570187
-940,cane,12m,FC,0.512362911014049,0.539438525987282,0.421390457193026,0.51329041644355,0.40480938852196,0.477203515957228,0.548784409673114,0.514446814130867,0.547799660894647,0.544228211860055,0.467002986107224,0.466774794149823,0.445270396035299,0.445971243997999,0.516179140280245,0.525522879436632,0.547132722561804,0.486578378801634,0.47128104646581
-930,cane,12m,FC,0.51250152974639,0.538842297702052,0.425076257803185,0.504667772139565,0.402694147507485,0.479246859575393,0.545862201910094,0.517340834184856,0.542524376672459,0.545806395908961,0.465608788653584,0.465662762084607,0.445321888216514,0.442530376889121,0.514363017882058,0.527911604929267,0.542967449017071,0.484173458482557,0.466915927431668
-920,cane,12m,FC,0.512529172401993,0.537806388362963,0.428709600490556,0.496793543621843,0.401192033072836,0.481050616542192,0.542630843254215,0.51994875346253,0.536560027090732,0.546980744668868,0.464842395833361,0.464830025553139,0.445165620669863,0.438592576548411,0.512138160493358,0.530766786736889,0.538483651305186,0.48201460026322,0.463022860883301
-910,cane,12m,FC,0.512500933827647,0.536163351315038,0.4323480059282,0.489793397393568,0.400538724602898,0.482541050607623,0.539309805110034,0.522782296799153,0.529616544964319,0.547597666415919,0.464464058352788,0.464221046838613,0.445147210727994,0.43435016448601,0.509867765157324,0.53343759460624,0.533979282600676,0.480415533847003,0.459367313588932
-900,cane,12m,FC,0.512529530541668,0.534275280457209,0.435641310334325,0.48352316950371,0.400790858476112,0.483996979889401,0.53606147954603,0.525958638869918,0.523429140269933,0.547620210412401,0.464330529384832,0.463953347063529,0.445177450034587,0.429784929491111,0.507581247728019,0.535705277303759,0.529649624910096,0.47897367478456,0.455879281334572
-890,cane,12m,FC,0.512824416011188,0.532717799632088,0.438332443011306,0.477686218599936,0.401391519276096,0.485232053425638,0.532921125324773,0.529280711823026,0.516626182174934,0.54717944202021,0.464491800258461,0.464227316792012,0.445472691995001,0.42477213467565,0.5051999193571,0.537804821980639,0.525417248944454,0.477150285235232,0.452755931848724
-880,cane,12m,FC,0.513437767614495,0.531561336962876,0.439780752291448,0.472129790966486,0.402806150302332,0.486326222671478,0.529918926250125,0.532875253112586,0.50961302092557,0.546422763534818,0.465223114975221,0.46516921186126,0.445792835669779,0.419623360308026,0.502896574824406,0.5400066787681,0.520854697551936,0.475352169919231,0.449920129447008
-870,cane,12m,FC,0.514503743096149,0.530820380454591,0.440293963342556,0.466876361442675,0.40459623987197,0.4874781707512,0.527241681619397,0.536596134947062,0.50281491994276,0.545504127455325,0.467038362552,0.467051295821932,0.445625073418908,0.414748714258248,0.500630925436272,0.542086762961832,0.516117671162663,0.473868913909492,0.447819639263571
-860,cane,12m,FC,0.515942643229108,0.530359245586985,0.441283171785896,0.462140909004584,0.406609674852816,0.488371307208332,0.525050732358283,0.540324454792981,0.496809466713495,0.544520432004595,0.470368974536004,0.469939438689103,0.445212225306014,0.410219120448856,0.498536224127989,0.543857805613642,0.511406679480064,0.472565926491979,0.446058037489618
-850,cane,12m,FC,0.51764916618931,0.529768864891189,0.442975130063543,0.459369646634636,0.408419719363597,0.489082434384148,0.523251608223035,0.543881172266078,0.491890762219858,0.543223217964724,0.474530964986693,0.473097372177138,0.445130409643617,0.406068565047157,0.496726626158397,0.545324667800873,0.506721317871848,0.471357076839358,0.444879628737461
-840,cane,12m,FC,0.519592607129078,0.529054158856584,0.445729422630966,0.457980172384012,0.410094932285682,0.489557935956781,0.521636384228853,0.547309325560562,0.488046511056292,0.541722450696966,0.479269512869474,0.476248629591792,0.444594381599154,0.40229328281556,0.494672405525495,0.546541290859212,0.502422550530266,0.470467166273345,0.444522616178174
-830,cane,12m,FC,0.52195793134872,0.528124664109628,0.4492088430698,0.457903023443861,0.411354734853811,0.489743945270911,0.520214108410442,0.550625505031219,0.485287329046796,0.539535252995857,0.484406134122524,0.479243656168663,0.443690296978864,0.398979270750779,0.49237862597147,0.547515830033734,0.498659636061574,0.46998320351206,0.444528228100974
-820,cane,12m,FC,0.524783845346323,0.527121536185529,0.452816257426022,0.458927791042097,0.412041208250569,0.489442129806734,0.518988406155487,0.553361420359496,0.48384397989982,0.536957402007986,0.489817613090766,0.481976756120055,0.442165919635854,0.396292986991513,0.490147009235632,0.548370298078697,0.495517372536367,0.469937274928349,0.444601884551207
-810,cane,12m,FC,0.528149127800884,0.52605764054448,0.456778694782606,0.460240592603046,0.412298880001193,0.488691310385178,0.518921623085755,0.5552192601436,0.483231048608499,0.534172073770924,0.494873765073052,0.484299506537957,0.439806430336731,0.394673248376585,0.487840226561827,0.5493262616626,0.493166245772044,0.470349650099904,0.444874023470365
-800,cane,12m,FC,0.531994139261317,0.525288864554464,0.461037987941629,0.461960369883392,0.41209630279006,0.487903519244356,0.51996632475676,0.555924046682901,0.483295825865429,0.531074898469071,0.499569718558159,0.486088015790723,0.43770465746949,0.394040480441812,0.485209772743457,0.549564151132033,0.491614748177823,0.471095038734189,0.445147859703659
-790,cane,12m,FC,0.536297919351568,0.52500793358735,0.465359495837341,0.46423570404685,0.411703970668988,0.487174234145463,0.521816118826796,0.555639575440388,0.483638291445229,0.527970302969656,0.503663879006916,0.487413863196557,0.436190673672702,0.393882431273329,0.482410553751634,0.548928094526314,0.490377032899947,0.471945684452586,0.444720491172233
-780,cane,12m,FC,0.540977179121439,0.524712770448188,0.469918226358424,0.467041528551729,0.411192981831419,0.486709304832617,0.523739243516118,0.554647377945987,0.483866896073917,0.524947124233473,0.506592131044553,0.488474531087405,0.435387136184938,0.393901186171066,0.479693332071148,0.548183372269145,0.488963804321896,0.47304878645951,0.443819330144756
-770,cane,12m,FC,0.546102977757407,0.524902367434228,0.47480244663704,0.46878900434112,0.411180036719191,0.486537675718784,0.524971546054505,0.552844791477041,0.483691769295852,0.52223115220996,0.508659388575939,0.489124189846153,0.435293420573261,0.394318802786984,0.47726071706146,0.548190169350773,0.487634970840825,0.474216568385273,0.442776280033399
-760,cane,12m,FC,0.551494293161528,0.525488758336222,0.479792657314364,0.470569082747202,0.411141466924147,0.486569641254763,0.525249676030385,0.550115919874998,0.48325127230766,0.519945248545756,0.510191386777056,0.489081004015126,0.435956294384299,0.395256682658389,0.474987597307986,0.548463801103262,0.486152414119092,0.475410000296817,0.441658063011068
-750,cane,12m,FC,0.55722754157305,0.526417168725837,0.484882140188007,0.47216558638445,0.411430561042781,0.486888217097911,0.524104022585221,0.546808736864657,0.482644409461766,0.518259613591554,0.511191647656619,0.488306897223908,0.437025857787339,0.396409592412746,0.472774471242368,0.549102955192009,0.48477973904136,0.476768309862089,0.440699348063453
-740,cane,12m,FC,0.563365849426945,0.527725580322786,0.490180184564016,0.47374371181517,0.411719566685353,0.487569769577462,0.522152655884114,0.542913483654622,0.481907632170083,0.516834458606927,0.511643129939289,0.48700063648294,0.437925109653485,0.397678906960691,0.470882652603743,0.549188823650594,0.484001741072583,0.47794832595218,0.440062856013384
-730,cane,12m,FC,0.569715919680807,0.529248265739439,0.495790674679818,0.475504268408777,0.412135433242979,0.488864368929448,0.519707482094327,0.538473242835353,0.481110616134789,0.515399689482385,0.511947305744765,0.485510920919361,0.438145854231665,0.398727398384417,0.469908285054181,0.54908845452495,0.484613245883098,0.479214282036993,0.440021628471045
-720,cane,12m,FC,0.57604937095257,0.530969684273118,0.501633049265514,0.477627001001587,0.412490706720714,0.491037122000787,0.516734188678133,0.533298592755422,0.479119232281786,0.514143532045074,0.512287837962358,0.483779985987455,0.437586081198925,0.398946079235425,0.469957891329878,0.548808129077837,0.485291025419681,0.480425889815533,0.440333066227906
-710,cane,12m,FC,0.582329460535477,0.532799939341375,0.507475510734482,0.47960928919442,0.413243957140594,0.494144282373399,0.513301498898979,0.527467243458052,0.47696770717542,0.512968678565444,0.51280200373922,0.481722027356195,0.436268767885642,0.398880152909741,0.47094798380194,0.547984499954131,0.485827929302337,0.481791915411231,0.44079710915544
-700,cane,12m,FC,0.588352982796819,0.534860016048583,0.513257876289561,0.481194703662316,0.414506339477142,0.497797112138704,0.508996966221871,0.521324497475945,0.475019510557151,0.511699337911184,0.513516625136548,0.479624665248879,0.434230748694969,0.398616815434897,0.472870996822353,0.546246196923355,0.486661108491882,0.483052178767434,0.441237194687805
-690,cane,12m,FC,0.593944751096241,0.53713220378583,0.519002027498108,0.482313028185276,0.416650651527246,0.501597013005372,0.504302956607942,0.514890452525499,0.473354178248661,0.510278567817325,0.514866789643672,0.477642776343007,0.431783653704416,0.398056475625841,0.475695989603268,0.544066569886378,0.487868397371731,0.483504581041486,0.441524240083918
-680,cane,12m,FC,0.598957661401735,0.539538749141325,0.524660487694938,0.483011549452404,0.419718277753609,0.505442308566715,0.499486723027404,0.508551071345166,0.471868918984788,0.509062229268626,0.517183703264204,0.475744089461129,0.429409859984024,0.397608094948258,0.479155196655215,0.541787304594418,0.489402104723268,0.4833402762578,0.441881931804039
-670,cane,12m,FC,0.603289276493532,0.542013356438407,0.529963070365566,0.483638037712268,0.423100831271769,0.509288793209534,0.494633112692158,0.502988991563635,0.469824170487471,0.508445098516782,0.520387079846696,0.473976346992241,0.427026465714105,0.397308407419365,0.482724133226318,0.539537938463676,0.491486215932278,0.482990196465255,0.442676941326356
-660,cane,12m,FC,0.606617093947983,0.544384923063544,0.535477980008423,0.484009745133511,0.426166556357625,0.513314689472112,0.490017619233202,0.498014628347886,0.467257821242921,0.508762598072155,0.524393700914788,0.472400666571619,0.424412776097562,0.397597327266274,0.486656675727297,0.537295663471554,0.494605301659279,0.482530777767684,0.443540292661199
-650,cane,12m,FC,0.609091697728848,0.54653375523984,0.541272504618791,0.483798787321437,0.428755759025585,0.517815682727203,0.48521753749771,0.49333801951305,0.464840785708892,0.509464195164913,0.529152854307698,0.471099063573854,0.422282825771636,0.398084873048243,0.490729420833837,0.534924546190436,0.498111995389429,0.481641573704302,0.444189266741251
-640,cane,12m,FC,0.610921268650975,0.548152646910341,0.547322550632795,0.483334586375655,0.43096116320487,0.522527899327603,0.480629322806561,0.488977950092161,0.462464735333612,0.510470200668033,0.534784794758788,0.470213345025689,0.420662511619696,0.39896967522391,0.494385542761579,0.532494733991419,0.501838488407282,0.480214301942338,0.4442587305998
-630,cane,12m,FC,0.612175835348161,0.549008833216402,0.5534573486058,0.482518288424041,0.433071254961904,0.526347671940725,0.4765642004781,0.484699772685521,0.460166108024679,0.511347796249834,0.540320727191297,0.469605320750454,0.419427650151203,0.400295127901533,0.49701444427134,0.529561240191613,0.506040767192942,0.478411289072808,0.443898791818026
-620,cane,12m,FC,0.612696836426805,0.549084070343996,0.559273597298308,0.481221428258577,0.434944689161387,0.529443030960067,0.473630624058965,0.480793742252797,0.457806653928234,0.512308009704631,0.545876323530084,0.469345284250801,0.417874894927876,0.402017096083655,0.498730695209858,0.526380195641242,0.510658354666832,0.476491300249742,0.442747117824167
-610,cane,12m,FC,0.612430434397105,0.548830469874556,0.565454436672053,0.479216650859209,0.436472860583141,0.53118497203167,0.472124319645048,0.477087350263565,0.455627598469853,0.513218579522609,0.551554365495815,0.469382297966981,0.416159246064815,0.404028291272557,0.499523900491298,0.522586439881691,0.515581637400859,0.474464096360736,0.441130707762709
-600,cane,12m,FC,0.611279925872665,0.548463760620706,0.572335193860375,0.476797426033399,0.437972716339938,0.532097144303062,0.472053037750942,0.473467509447995,0.453843658172715,0.513708894256403,0.557052241025669,0.469570214124996,0.414755538250136,0.406464600309319,0.499720882173052,0.518288258206874,0.520713915870589,0.472692377071783,0.439014525643611
-590,cane,12m,FC,0.609908606878557,0.548789317315935,0.57893119758381,0.474112949055316,0.439596660561234,0.53229242973592,0.473362154643666,0.469890706671812,0.452560635617636,0.513778484882703,0.562558608796242,0.469859338127063,0.413552234097786,0.409382428721218,0.499288417987857,0.513154517927436,0.525819108338138,0.470721269583029,0.436331545098538
-580,cane,12m,FC,0.608477523016425,0.549603139750702,0.58455241042238,0.471493147794411,0.440892109412355,0.531916339237156,0.475965067759713,0.46604902761346,0.452043182878605,0.513414506367463,0.56807969805974,0.470241217270551,0.412833768169061,0.412675666373578,0.498175508562709,0.507763142640016,0.530900337467207,0.468991922218786,0.433139022783327
-570,cane,12m,FC,0.606998440363918,0.55069175179176,0.589485117287042,0.469002571387097,0.442051598829282,0.531006730963835,0.479748189882999,0.462079202743213,0.451337519835357,0.512649381632373,0.573443646272463,0.470817402725047,0.412574905881023,0.41639073746851,0.496315844050439,0.502037998669381,0.535764540091989,0.467471319057127,0.430127065794325
-560,cane,12m,FC,0.605333808321417,0.551472601069783,0.59386152643625,0.466641804672701,0.443359974306675,0.529699732951668,0.484572971154864,0.458403911105604,0.450583512189023,0.51174804742076,0.578257073855065,0.471574766073782,0.413189148206742,0.420318564810836,0.493918381160654,0.496427361134277,0.539976812100706,0.466134057756738,0.428125009337289
-550,cane,12m,FC,0.603531087849819,0.552193812618729,0.597099271647606,0.464144120891467,0.444719577873623,0.528091268789121,0.490327615356446,0.454855619817559,0.449505769531881,0.510938216407786,0.582638229947101,0.472560706404197,0.414639321873358,0.424049088289731,0.490969033408525,0.490836647454151,0.543571049586039,0.464960321212622,0.426201717008571
-540,cane,12m,FC,0.601974138435236,0.552941209969703,0.599099124125593,0.461379527168294,0.446206624037881,0.525614882551249,0.49698222876756,0.451922485802136,0.44788735378022,0.510004347949469,0.586282109532865,0.473883647609862,0.416626708303966,0.427432950908279,0.487890101193967,0.485963888380394,0.546347279943351,0.464058544997711,0.424637895734438
-530,cane,12m,FC,0.60054041260479,0.553613958916372,0.599826366478044,0.458494132072872,0.448148273242973,0.522392492350068,0.50452920076479,0.449411386450088,0.445787788512814,0.508799875777298,0.588828115472241,0.475172936230488,0.419098403699711,0.430446644622974,0.484608432555107,0.48088784201702,0.548994261757665,0.463143976549289,0.423785392258847
-520,cane,12m,FC,0.598902300239443,0.553997913491146,0.599547663483301,0.455986882464425,0.450164540095149,0.519098242805344,0.512803212104377,0.447110166242538,0.443636610622154,0.507004778695543,0.59060214624242,0.476253680918244,0.422105590546664,0.433446999096946,0.480837741984459,0.476499098221483,0.552331615072922,0.462294720735773,0.424316390295818
-510,cane,12m,FC,0.597104612041516,0.55458365830932,0.59888476648186,0.454480360690507,0.452390672557539,0.515959933237801,0.52167545020013,0.444848766115135,0.441656710207596,0.504664563436962,0.592037087927122,0.477348140479694,0.425273822332697,0.436394150430089,0.476884233663344,0.473357581701496,0.556568455657427,0.46149530726378,0.425622054642904
-500,cane,12m,FC,0.595226787135317,0.555558813087614,0.597956945016574,0.454214742251375,0.454634058193961,0.513251198258683,0.531122662793079,0.442690398474924,0.439799805293719,0.501888067688979,0.593176226097507,0.478550585799486,0.428593778667555,0.439116195785481,0.47324496376521,0.471070222859334,0.561126037238585,0.460949699456841,0.42720268250374
-490,cane,12m,FC,0.593069915493434,0.556942791277861,0.596441742992389,0.454281749861447,0.456739898853696,0.511160522162583,0.540982219316682,0.441154572748959,0.437899864937668,0.498505610894348,0.593817769692074,0.479371640935901,0.431993284157172,0.441606532865777,0.469892104416533,0.468055874643718,0.56528467150885,0.460799566551998,0.428696200393807
-480,cane,12m,FC,0.590609187138261,0.55863706068785,0.594720941245461,0.454201273568353,0.458952882354643,0.509625349033788,0.550797928740074,0.439948468419127,0.435826872866447,0.494464621664683,0.594259004313093,0.480139232561984,0.434950758117148,0.443790858973343,0.467016687068701,0.464564667499278,0.568758392495502,0.461359028314383,0.430306750062495
-470,cane,12m,FC,0.587974070473844,0.560649489302421,0.593472017469731,0.453810094526491,0.461327388692148,0.50884766296917,0.560501850820283,0.438622573665638,0.433322133125937,0.490114962197483,0.594567692048751,0.480688764465832,0.437532911059027,0.44555555887103,0.464877943400522,0.461194400971105,0.571459839524198,0.462094134658633,0.431791561427034
-460,cane,12m,FC,0.585519010622343,0.562938749726353,0.591681479924008,0.452963844210802,0.463272556801347,0.508868929106911,0.569664378545175,0.436857821291285,0.430495125064059,0.485092688233231,0.595092136981434,0.481005270006223,0.439769853983396,0.447137562019919,0.463884502234172,0.457870458211265,0.573119892431405,0.463202777545136,0.43246491491245
-450,cane,12m,FC,0.58290041533897,0.565258576050179,0.589474063657755,0.451346782076694,0.464337636017663,0.50959083124584,0.577966246486795,0.434439852872603,0.427207808936949,0.47924027448225,0.59619844349795,0.481282359769287,0.441821943061932,0.448823666124798,0.464034175478831,0.454358021815902,0.574452040648677,0.463758100374089,0.433024377053436
-440,cane,12m,FC,0.579932779534347,0.567622379992158,0.587398031098628,0.449266542286595,0.465205506683539,0.511041142774282,0.585204211041831,0.431366039379743,0.42350199106934,0.472632919387566,0.59777528336415,0.481624064160633,0.44373716333146,0.450593839408183,0.465078756358103,0.450537479839644,0.575044080633634,0.4643460069516,0.433631658668724
-430,cane,12m,FC,0.577025733841612,0.570296183048685,0.585833804726227,0.446840931826053,0.465990010337222,0.513110102007448,0.591300665070816,0.427855355045816,0.419087623609513,0.465818036335022,0.599675511280654,0.482111744680055,0.445745152729626,0.452708617082498,0.466855435760001,0.44682079326729,0.574213471700356,0.465042972381998,0.434517582869586
-420,cane,12m,FC,0.57435580970892,0.573338076507809,0.584440997674604,0.443664707775555,0.466494139592512,0.515890891676646,0.596196246371495,0.424327986456454,0.414160414541914,0.459156351385763,0.601813549392925,0.482514205915618,0.447370631960426,0.455072306163077,0.469150048620435,0.443313987421287,0.572012805474309,0.465555751447735,0.435731891413883
-410,cane,12m,FC,0.571747379304772,0.576530196782598,0.583198852723201,0.439565563342736,0.466421198941106,0.518655329256246,0.599719083799835,0.42069904564889,0.408808174206398,0.452895847913125,0.604390518887279,0.482644174453632,0.448502670487218,0.457398066031967,0.472154534911713,0.439074303794038,0.568236536361884,0.466053585474212,0.437148839350315
-400,cane,12m,FC,0.568998745437345,0.579851175999499,0.581585312751673,0.435407568043749,0.465904245459136,0.520790112209776,0.602343670681756,0.417104645887188,0.403490311320354,0.447232956061509,0.606688493455315,0.482772125982161,0.44898122309372,0.459725046633831,0.475631298583474,0.434656861110362,0.563062434817702,0.466676302186539,0.439183291085976
-390,cane,12m,FC,0.566040352186471,0.583122232589836,0.579716767947468,0.431908750589173,0.465029962162901,0.522254211353999,0.603570129506367,0.413775658861408,0.398926525310646,0.442368597872907,0.607547663130136,0.483074818562584,0.449271065836964,0.461542893558627,0.479710398770144,0.43021417013836,0.556739765504406,0.467729377605537,0.441493866488937
-380,cane,12m,FC,0.56294497188164,0.586237380550494,0.577873792144487,0.428963830918541,0.463910129327886,0.523805209955545,0.603981254267244,0.410974623683436,0.395421141584113,0.43892597577606,0.607698884453656,0.483642226436865,0.44964531629742,0.463032669306077,0.483843694960985,0.426076845946301,0.549545126024412,0.469181351108059,0.443726556554895
-370,cane,12m,FC,0.559740952258886,0.589161371418034,0.576119878819935,0.426199032243174,0.462478163883543,0.52469378639064,0.603689801162221,0.408606156356008,0.392599178050209,0.43638883201005,0.6070575925995,0.484336378723673,0.449677770226223,0.464383308770987,0.487506488000332,0.422414563148319,0.541946254262146,0.470823487191477,0.445470755624215
-360,cane,12m,FC,0.556126778008181,0.591703673514539,0.57379029747961,0.423881213714282,0.460521675208832,0.525023820494542,0.60270124072895,0.406501612608287,0.390289071297786,0.434594835732152,0.605632369090488,0.485118010923851,0.4495660126745,0.465310709538247,0.490666891690153,0.419208313112951,0.534242506091476,0.472637257554066,0.44638988426383
-350,cane,12m,FC,0.552034258130323,0.593899242071433,0.570886691276195,0.421715657184683,0.458122137407214,0.525480964545448,0.601073073742013,0.404345170054127,0.388471962599202,0.433400897076531,0.603743146735382,0.486088811667905,0.449023954149376,0.465723574661793,0.493601531264746,0.416518240473058,0.526912477681344,0.474687583748899,0.446434781413379
-340,cane,12m,FC,0.54747250118969,0.595831816953815,0.56748082232666,0.418999810222929,0.455784237857711,0.525898927488416,0.598979476030166,0.402246148162004,0.387423813878466,0.432765134733903,0.601575652317264,0.487017544051735,0.448216979376687,0.465807708474496,0.496389671358842,0.414503277644408,0.520321290761725,0.476827386065796,0.446098610047471
-330,cane,12m,FC,0.542864716558651,0.597748218538789,0.563785476232095,0.416000008266603,0.453366935084309,0.526069724568578,0.596513063921011,0.400539581906783,0.386282081633058,0.433420933604243,0.599219145964452,0.488294977731099,0.447679541661425,0.465607798379832,0.498653888703503,0.412053654427168,0.514246785671849,0.478875624130067,0.445390411803941
-320,cane,12m,FC,0.538262779892084,0.599368448659717,0.560009071308985,0.412403593112605,0.45102270811471,0.526620378993269,0.593699249406551,0.399528735145653,0.384634166329611,0.435610263628255,0.596535048585777,0.49007074077184,0.447918108719905,0.465262724717258,0.500865115246076,0.409709004512751,0.508738028963106,0.480069965227508,0.444387949359872
-310,cane,12m,FC,0.533865726725347,0.6000554079307,0.556430178816947,0.408434374051339,0.448850648501097,0.527516404927158,0.590603436897488,0.398435482606421,0.382839790590283,0.43852881609137,0.593380969183964,0.49216828052513,0.448636214660065,0.465021837781452,0.503168918515207,0.407952006738052,0.503702501557391,0.481100769045181,0.442943166101406
-300,cane,12m,FC,0.529766973619945,0.600487111685481,0.553873377656221,0.40482084823478,0.447145173700356,0.528864225358387,0.587278166814333,0.397375177301199,0.381365370061569,0.44180610314919,0.589712977328549,0.494620264260195,0.449794943259118,0.464947281824479,0.505291175930658,0.405560244668128,0.499101986448209,0.481669564189765,0.441227123792298
-290,cane,12m,FC,0.526460821776302,0.60080352586173,0.552579144554938,0.401199882216089,0.445851906444738,0.530342113208142,0.583116543507391,0.396617808546529,0.380061241686445,0.445058168876666,0.585513327765099,0.497534644219119,0.451403045617291,0.464685768766228,0.507198113253358,0.402806776504941,0.494980231550873,0.481927195142561,0.439547100255493
-280,cane,12m,FC,0.524164019509894,0.601302755776402,0.551764168455326,0.397257032183243,0.444728892310737,0.531781685925487,0.578668765216179,0.396499562458572,0.379332747115634,0.448812440159,0.580801903645076,0.500871931235344,0.453455902232283,0.464415376086995,0.508924366042361,0.400258213404086,0.492397694732785,0.482059967159491,0.437682257957169
-270,cane,12m,FC,0.523669317618762,0.601766886505283,0.551871635071904,0.392626419973731,0.443676459110211,0.533233136191975,0.57414083364406,0.396959494008666,0.380017634336181,0.453064778394047,0.575647571232862,0.50442452420156,0.455950646747801,0.464381618527204,0.510573375451186,0.397994600070079,0.491177737693275,0.482184293995228,0.436426660462482
-260,cane,12m,FC,0.524716916989984,0.601685922534241,0.551648022522825,0.387377600107438,0.443016186454574,0.53468726543933,0.569405961762115,0.397850368833853,0.381785567175597,0.457467708328973,0.570143081176996,0.508278193373477,0.458789853549358,0.464834276819674,0.512312889273098,0.396614357490084,0.490547668400884,0.48206805310052,0.43610985629391
-250,cane,12m,FC,0.526869626972224,0.601527225335474,0.551205960787736,0.381043060713899,0.443092515223039,0.535795566514822,0.564081643373433,0.399420095190021,0.383856849765493,0.461797175648442,0.5641625822494,0.512395639843053,0.461664733202194,0.465422628476601,0.514376014541296,0.396203992547114,0.489993065555653,0.481631511540533,0.436804558734674
-240,cane,12m,FC,0.530147026912115,0.601215745605047,0.550778604257201,0.374398972393689,0.443384335800231,0.536248208006492,0.557972260761467,0.401647769648483,0.386283702877088,0.465863457737181,0.557686644342504,0.516953604913411,0.464594032699256,0.465998647953193,0.51648113029948,0.396964980868786,0.489143625983979,0.481041612709017,0.438429074243766
-230,cane,12m,FC,0.534234020101685,0.600632335364985,0.550464418711284,0.367510964458018,0.443676469424396,0.536307420464103,0.551522414269894,0.404074588371206,0.388912939783946,0.469517485231041,0.551499313623383,0.521978405550522,0.467049849915549,0.466665744504149,0.518744696424408,0.398701123362627,0.487593101400617,0.480229730102873,0.44066283011326
-220,cane,12m,FC,0.53876739173694,0.599948735835201,0.549485620167131,0.360607258843643,0.443298909439947,0.535731529111782,0.544686568395288,0.40675832715018,0.391707358968582,0.472864363882963,0.545938589162942,0.527307010829543,0.469595172802693,0.467444504089907,0.520962781938098,0.401258074161382,0.485415097515929,0.479159330811038,0.443752519272427
-210,cane,12m,FC,0.543244399112731,0.599033842774345,0.547783492486937,0.353281071234076,0.442398252666846,0.534745343304705,0.537808600797621,0.409631607721263,0.394364369547213,0.476183963590974,0.540940659809787,0.53281072722922,0.472203678985472,0.468544942445303,0.522770905604833,0.404959081230981,0.48252396622018,0.478094299782672,0.447835441168463
-200,cane,12m,FC,0.547405989669138,0.597888797097679,0.545747266288894,0.346017360473236,0.440534177952062,0.533733224043731,0.531022960114138,0.412923198822705,0.396368435432324,0.479918735501095,0.536496741146188,0.538450581936851,0.474677493005472,0.469779367061139,0.524186827546238,0.410566976769496,0.478919364922529,0.47718313597909,0.452613096114715
-190,cane,12m,FC,0.551305955795958,0.596789529453599,0.543452997556528,0.339247601510721,0.437910170461798,0.532782639903649,0.523743105875274,0.416494700017368,0.397644671797936,0.483847107272847,0.532654546880174,0.54397776131456,0.476695203101548,0.470933958274643,0.525959172105234,0.416937845827434,0.47493634656495,0.476474435255795,0.457686542700486
-180,cane,12m,FC,0.555191702327046,0.595657125456788,0.541099657275296,0.333470325849581,0.434831979204968,0.531809912476658,0.516107925271952,0.420431331614465,0.398174552124465,0.487990206105703,0.529179576110994,0.549441811397155,0.478606385886922,0.472367183095726,0.527590881535328,0.423752602121357,0.470700168663122,0.475799623843315,0.462569450154003
-170,cane,12m,FC,0.559223934267852,0.594407119429672,0.538527970054974,0.328106022297484,0.431631988118448,0.530773777262858,0.508536565601082,0.424374666870483,0.398128537500307,0.492464117577492,0.526824036228378,0.554750235190193,0.480496421837577,0.474142820405757,0.528706172027508,0.43159356426356,0.466766512642783,0.475598467348581,0.466858235649067
-160,cane,12m,FC,0.563107571227325,0.593290317690443,0.53613077331074,0.322896473128567,0.428160959709957,0.52920215195957,0.501466865966249,0.428048722576579,0.397583441856535,0.496560157458322,0.525703166637888,0.559999178935352,0.482333356376997,0.475952336465952,0.529701533911908,0.439558403341918,0.463406498340392,0.476017739384697,0.470422618831217
-150,cane,12m,FC,0.566951948790616,0.592192336450431,0.534205354702684,0.317615271568498,0.424787426162823,0.527315107580924,0.494598121784338,0.431760354624362,0.395578896955273,0.500488757228171,0.525466301020791,0.565246813965267,0.483883287810927,0.477221723094171,0.530462372768047,0.446853903218233,0.461001242422018,0.4768587118691,0.473833031655481
-140,cane,12m,FC,0.570880534467682,0.591640837647653,0.532945549079408,0.311932397403441,0.421923839490971,0.525040084274523,0.487761576015253,0.435534601931935,0.392981664652906,0.504387361317831,0.525889360393942,0.570272468488292,0.484788680862645,0.477635016324824,0.530820818950267,0.453983816798558,0.45884441431261,0.478008305648563,0.477893877598432
-130,cane,12m,FC,0.57485260198041,0.591532376453118,0.532494026892719,0.306514346174462,0.419761632202081,0.522333853771693,0.481052129071263,0.439262301428119,0.390134662397294,0.508224383974317,0.526874077336606,0.57505170712435,0.485612186952043,0.47756293154371,0.530942845838716,0.460752647813257,0.456532247609378,0.479356018902221,0.482093640775132
-120,cane,12m,FC,0.578810223927927,0.591540430088377,0.53285619550416,0.301404073854891,0.418688855320576,0.519115281366618,0.475708244145305,0.442843607216448,0.387195002736494,0.512109105062672,0.528135135052757,0.579303524625167,0.486506825216299,0.477210923228115,0.530914009810097,0.466933350992133,0.454169769957016,0.481009825263244,0.486165228518694
-110,cane,12m,FC,0.582675488675167,0.591900083186034,0.5338049771352,0.296874391781198,0.418430541034877,0.515364375032999,0.47177966780408,0.446539210164475,0.383856626757971,0.5157619046433,0.53050213569269,0.583088110485911,0.487437897994182,0.476893433185587,0.531072844503341,0.472956643644397,0.451510002694277,0.482667645436609,0.489869370137879
-100,cane,12m,FC,0.586296309269956,0.592579587931337,0.534997093210492,0.293524622849283,0.418529355475615,0.511330722258337,0.468198707933081,0.450164862029466,0.379309455773685,0.519295097320653,0.534699387781544,0.586345404354891,0.488658766824291,0.47649949091345,0.531595329781233,0.478553072943259,0.448679436610715,0.484075341365138,0.493061176646834
-90,cane,12m,FC,0.589630051492694,0.593739395729341,0.536170545254205,0.290946476780692,0.418407358536079,0.507310579304535,0.46450324558405,0.453485636639335,0.37372845091394,0.52298903785806,0.539309649184984,0.58908039701741,0.489669146067587,0.475785773664576,0.532661725423548,0.483552777228979,0.445942926574797,0.485221270527364,0.495969795166162
-80,cane,12m,FC,0.592623719756105,0.595134067088758,0.537242984312235,0.288992766142931,0.418198191965371,0.503602039438739,0.460574191511672,0.456476940275646,0.367750549603349,0.526850472599926,0.544088586385456,0.591509105604218,0.490828556461113,0.475052346388197,0.534392081090571,0.487850729288217,0.443275180220169,0.486299538181803,0.498706786511083
-70,cane,12m,FC,0.595238609907506,0.596766515774719,0.538352265261518,0.287866974798662,0.417930101730412,0.500341602716154,0.456708133291162,0.459439486272822,0.362723288772158,0.530753926113341,0.548422034036881,0.593699168185497,0.491967944919869,0.474062641824482,0.536546386778535,0.491573639316321,0.440736486776839,0.487297386200108,0.501126241962677
-60,cane,12m,FC,0.59773456113351,0.598757814468083,0.539758499632514,0.28675339184114,0.417552830104249,0.497264168013897,0.452758215832099,0.462322332279699,0.359478229880231,0.534513642961512,0.552364101417138,0.595327506085564,0.493080217689728,0.473140830025347,0.539104599933976,0.494950778480681,0.438289754967891,0.488168801896712,0.503859165330947
-50,cane,12m,FC,0.600114717206443,0.60036790238123,0.541485417400999,0.285772859339791,0.416709025650915,0.494435191128753,0.44867534505467,0.464895632984186,0.357265881375889,0.537740863531884,0.555798589522651,0.596408535627038,0.494201148300675,0.472418833557121,0.542266252055088,0.497251202037213,0.435703211211714,0.489039560139927,0.506613276267965
-40,cane,12m,FC,0.60230976270651,0.601529993066872,0.54341887649022,0.284518980950963,0.415612401793799,0.492045594721907,0.444131291560039,0.467154176712154,0.355426598512761,0.540896579200205,0.558814956738701,0.596809398777443,0.495337028556939,0.472054028999556,0.545671091190547,0.498556138708678,0.43291510620155,0.489774681743288,0.50942578531443
-30,cane,12m,FC,0.604004047730547,0.602255278739217,0.545465908016626,0.284307217317241,0.414464028884881,0.48950408920803,0.438888240898973,0.468875425219906,0.354360919826294,0.544148362793719,0.561462778885304,0.596522005230178,0.496624816962314,0.471977354998432,0.549174339017188,0.498126978698059,0.43020189442986,0.490066587662988,0.512547992531929
-20,cane,12m,FC,0.605611389749045,0.603050105662753,0.547424894720909,0.284595979222127,0.413294590219284,0.486833241775494,0.433302910729248,0.469964043084345,0.353977511481223,0.547954471602779,0.563718407097419,0.595769839061593,0.498358261568182,0.47168396279611,0.552262733412756,0.496135891027644,0.427714743535015,0.489756064753449,0.515785857398367
-10,cane,12m,FC,0.607190006481689,0.603882107583806,0.549196291696925,0.285804465620325,0.412306970949618,0.484575221325971,0.427378530298335,0.470307224242191,0.353529420870539,0.551577473717224,0.565256643630876,0.594566783478175,0.499958375000429,0.471340632668429,0.554652926432618,0.493804376116018,0.425684757657249,0.489091423504823,0.518776980809181
0,cane,12m,FC,0.608621923194737,0.604364199040613,0.55093609142492,0.287866695797664,0.411746386042595,0.482819965645024,0.421070283311987,0.470532325919056,0.352755423080584,0.554873111240135,0.565887199620098,0.592627715358683,0.501437906512295,0.471250762732762,0.556737465155913,0.491425841726379,0.424260452360827,0.487895322288718,0.52134482042446
10,cane,12m,FC,0.609975535414916,0.604950396243627,0.552740380286788,0.289980541046468,0.411440045869672,0.48161093844233,0.414204717863747,0.470675887915454,0.352404441252747,0.557695176782545,0.566245736262455,0.590085701786563,0.502795923027108,0.470955335887212,0.558481964173832,0.489256582182328,0.42340720826509,0.486235834438946,0.523403326356882
20,cane,12m,FC,0.611566214962161,0.605489236514788,0.55440991170751,0.292638208655228,0.411564911722452,0.481261699895929,0.406589072347856,0.470886549134981,0.352404720694707,0.560403572166878,0.566308950878485,0.587080145647784,0.503621023390109,0.47051869081499,0.559904986453276,0.488083941953208,0.42293759702882,0.484283232260871,0.525124387100119
30,cane,12m,FC,0.613451679387273,0.606109641171299,0.555764694644775,0.296446476395318,0.411720858841639,0.481711523804273,0.398384636827775,0.471304335815371,0.35196688930419,0.563102047321157,0.566206026178587,0.583834408513608,0.504494466401047,0.470095717258542,0.561084327415483,0.488083281277232,0.422279373160718,0.481618983286516,0.526642417540499
40,cane,12m,FC,0.615356311639033,0.606493681523882,0.556814940725771,0.301530440258855,0.41147605144001,0.483301351619031,0.388912324280708,0.471456482909365,0.351000120958676,0.565421025164503,0.566177039165431,0.580496745248049,0.505874284628089,0.469800210237627,0.561955978096918,0.487801081558569,0.42199203428541,0.478101134903037,0.528110813975941
50,cane,12m,FC,0.61713786861725,0.606606168808062,0.557808807960267,0.307635142136033,0.411216007924815,0.48629568207376,0.378298316588463,0.471874211973464,0.349780337973494,0.567083073217712,0.566281687797864,0.57708295385511,0.507764047648836,0.469759879431954,0.562686083661567,0.487115760440618,0.422112408478724,0.473877873896482,0.52965615498045
60,cane,12m,FC,0.619003526419895,0.607004280283893,0.558512432887093,0.314441869244085,0.411691360342693,0.490008211307767,0.367334493255421,0.472493390536157,0.348508121182855,0.568323602729676,0.566498426900098,0.573767597026168,0.509507906201704,0.470108992672729,0.563007059822598,0.486317924500281,0.422281332152797,0.469281782635556,0.531109644791832
70,cane,12m,FC,0.620848005356464,0.607662231746625,0.558478639135427,0.322747891029492,0.413013294030343,0.49399803874826,0.357209300969778,0.473184735652396,0.347075301064757,0.569226071109516,0.567163789361691,0.57069376519335,0.511506620066692,0.470795501779867,0.563037204855568,0.485563412889194,0.422433139381807,0.464477156561988,0.531878697445037
80,cane,12m,FC,0.622838339193037,0.608241936491163,0.557539431311916,0.332048939135104,0.415220777808263,0.498103351563661,0.348063617542755,0.473735330306225,0.345532036230503,0.569895387593831,0.568316789728616,0.568061318151757,0.513759869322817,0.471574774071473,0.562860986166745,0.484832844438467,0.422342512063832,0.459479748004136,0.531870414891549
90,cane,12m,FC,0.62515397784301,0.608750305112314,0.555321002641703,0.341604011413524,0.418361904008035,0.501881488404814,0.339994941413571,0.47406939978142,0.343934678418629,0.570220196071545,0.570194502424335,0.565667856414318,0.515963374721692,0.472133573073122,0.562601340797258,0.485020099416278,0.422126773578748,0.453716164478444,0.531131952564672
100,cane,12m,FC,0.627447508550651,0.609208213348563,0.552193289212588,0.351809394851246,0.422072389205947,0.504865585414096,0.333091253771323,0.474221948182077,0.342522218270908,0.57033103684877,0.572445317744996,0.563528708196354,0.517982455946093,0.472587524370387,0.562383241265201,0.485818176856135,0.421932580688719,0.447431160583299,0.529167214837951
110,cane,12m,FC,0.629596327776959,0.609660805953793,0.547729158621369,0.362483874767283,0.425998077601137,0.507087683165325,0.326726717139221,0.474245091868955,0.341052516020363,0.569984365331374,0.574448848979176,0.561591850733538,0.519796691744577,0.473058273550493,0.562465356539925,0.486587945058809,0.421577570245341,0.441233458428346,0.52589352542013
120,cane,12m,FC,0.631760460564615,0.610296004584736,0.542454152654291,0.372868632690589,0.43034721205303,0.508102253065875,0.32112216220191,0.474472033545074,0.33939954492553,0.569177374401044,0.575195196996032,0.559695549554031,0.521508779750386,0.473614043359728,0.562265965136127,0.487493090682091,0.421175647996027,0.435402740452268,0.521937968626272
130,cane,12m,FC,0.633842124077365,0.611224256385339,0.536536318858537,0.382438901810507,0.435565207162665,0.507970437500193,0.316449615490217,0.474876610777142,0.337691806829139,0.568240554074468,0.574013046893696,0.558092461868612,0.523324921774468,0.474308635709636,0.562130743860438,0.487806630943942,0.420948589311568,0.429974464880117,0.517577943987003
140,cane,12m,FC,0.636213151648821,0.612447842061887,0.530193277863675,0.39164159357317,0.440897018407015,0.506313902311114,0.312727111041707,0.475593888815204,0.336164240923349,0.567633574189137,0.571426895721245,0.556659652835891,0.525321089756278,0.475158194692751,0.562523197283535,0.487551736910237,0.420834261023043,0.425129774857872,0.512661611815977
150,cane,12m,FC,0.638761475240829,0.613930353337385,0.523869450828638,0.399912410152731,0.446071844905418,0.503667847755311,0.310360479996328,0.477171496676757,0.335100416542153,0.566804201766668,0.567603365390289,0.555259378425062,0.526958262907385,0.476039715400966,0.56313987264455,0.48685017357616,0.420749169242221,0.420806560156698,0.507339732268725
160,cane,12m,FC,0.641400440870777,0.615463113799534,0.518210457130461,0.408153783938165,0.451145977137502,0.500704354561773,0.309136571058457,0.479709565556162,0.33451742411254,0.565822448556544,0.562545836714815,0.553994313843813,0.527573143471579,0.477295200043583,0.563249896892901,0.485782205325821,0.42045468926666,0.417476251038547,0.501848973281761
170,cane,12m,FC,0.643799934908137,0.616958348913895,0.51336578554654,0.416120911864881,0.456125375803314,0.497520462600729,0.308085498490767,0.482707188547553,0.334758004912065,0.564798938434171,0.556041403265293,0.552799139447168,0.526928752894838,0.478304880405968,0.563118796298493,0.484781515044728,0.419756952022278,0.41510021475003,0.496421955027199
180,cane,12m,FC,0.646232098355658,0.618682909648651,0.509371702347249,0.423354337293398,0.461270871187759,0.494412576296304,0.30762348988127,0.485850543990432,0.336251183146346,0.563789654881841,0.547800274105878,0.551772386942366,0.525179009216023,0.478703332562032,0.562938923479041,0.484129091260975,0.418889194247214,0.413704224537661,0.491012948057341
190,cane,12m,FC,0.648872838818982,0.620763603424276,0.506197847286827,0.429593451380667,0.466654059143652,0.491333611517265,0.309064074435743,0.489125519563163,0.338654711036324,0.562578721950806,0.538460613126079,0.550349099657163,0.522620430919174,0.478321389174027,0.562715350322424,0.483393328076636,0.417733497831063,0.412715423437398,0.485362029206277
200,cane,12m,FC,0.651736110828255,0.623582785205702,0.503942411110946,0.434864430258438,0.472195222457356,0.488351497479954,0.312094602836261,0.492349605717472,0.341882031457304,0.561148988034423,0.528302175198879,0.548439348642288,0.519053002171065,0.477266906271786,0.561753774062397,0.482587170809138,0.416872802831613,0.411826066713142,0.479465771243843
210,cane,12m,FC,0.654633122498978,0.626958438146944,0.502906495341113,0.439256643463285,0.477950840672693,0.485580364757111,0.31588881239945,0.495526004938337,0.346451706181179,0.559613284425352,0.517459542934106,0.545990322160484,0.514864425025427,0.476255824629465,0.559891613433886,0.482756772174761,0.416487507440451,0.411161653245968,0.473890954252292
220,cane,12m,FC,0.657262954494396,0.630858137864692,0.502832655907459,0.442961733796585,0.483153633464536,0.483032237290828,0.320781005537968,0.498718498434759,0.352240364986765,0.557751634201067,0.505580624380743,0.543042774778447,0.510368246271608,0.475423334159409,0.557426448907984,0.484396998286787,0.416606350776037,0.410635060004468,0.468682529430156
230,cane,12m,FC,0.65930424663186,0.63452407514194,0.50379948249931,0.446139651584964,0.487593852068741,0.480570066765259,0.327371104829249,0.501916677999916,0.358790892650256,0.556047612372899,0.493724417913666,0.539617487360681,0.505707611143188,0.47467439224027,0.5545103205436,0.486930945094376,0.417038839151576,0.410257721369991,0.463723512068864
240,cane,12m,FC,0.660589817703063,0.638443744254203,0.506250740527823,0.448876299306339,0.491727555889449,0.478168359957912,0.334994114691159,0.504802707141757,0.36563780529358,0.554418417325921,0.482359855277971,0.535781841210401,0.501205914426625,0.474009993975623,0.551151476384097,0.490164349825742,0.417866412656533,0.410221837748268,0.458933527776995
250,cane,12m,FC,0.661163573290021,0.642436420776485,0.509745959936868,0.451302592204305,0.495822561331241,0.476191806449735,0.343196210222685,0.507505336595268,0.372338319295882,0.552994505996459,0.471576516859392,0.53153608124329,0.49701484945701,0.473332159117555,0.547091292585382,0.493698257727788,0.418493391971819,0.410380023347626,0.455192342681995
260,cane,12m,FC,0.66077862512128,0.646653386808987,0.51309996268603,0.45305960375548,0.499883106144493,0.474402269900161,0.351575288148118,0.510098474145987,0.378756310193942,0.551503187254863,0.46174094129693,0.527162694844712,0.493213345747999,0.472632617708811,0.542465801608881,0.496392855916019,0.41889383819504,0.410739989590964,0.451444752578238
270,cane,12m,FC,0.659675920620139,0.650698013100764,0.515963933984411,0.454041544539997,0.503128133601407,0.472186848869918,0.359771864410152,0.512212141797426,0.384986201638776,0.549866383381731,0.453200841310007,0.522903091783996,0.489085982962414,0.471794897318783,0.537835800809608,0.49822922247522,0.419829108150964,0.411115590738258,0.446924544015197
280,cane,12m,FC,0.657979318912744,0.654088608625011,0.518144574377036,0.454461814171635,0.505630666000889,0.469499763553051,0.366751945449303,0.513392996034748,0.391392812106603,0.547900573712655,0.445179393238191,0.518919636218973,0.484678359083883,0.470547216445979,0.53331658078834,0.499604556525015,0.420940872823415,0.411322584793063,0.441811220503258
290,cane,12m,FC,0.655776436074334,0.656341338628342,0.519792509728871,0.453880935401678,0.507264206867475,0.467382647661923,0.373134427860603,0.513872498233745,0.397990996697315,0.545466542739863,0.437966243563142,0.515062767369016,0.47993238275839,0.469276188835011,0.529178769254566,0.500465984772285,0.422590530791274,0.41145904849917,0.436224624152602
300,cane,12m,FC,0.653360669888757,0.657455973112311,0.520739060637574,0.45254762018946,0.507889177017382,0.465287401693717,0.379594467287116,0.514053198941901,0.404753321280207,0.542411643230703,0.431664297299546,0.511133335636967,0.475328761695329,0.468744185777151,0.52570962759869,0.500265853961407,0.425332637793685,0.411288235264402,0.430169735149063
310,cane,12m,FC,0.651060753775162,0.657511653356454,0.520625944204329,0.450572182459765,0.507498767562127,0.4636534779993,0.386213870852704,0.513924075314019,0.411802095238482,0.538665654399789,0.42644582986849,0.507198276508224,0.471411562472105,0.468467725664361,0.522810650972938,0.49991639866721,0.428806214287145,0.41125805757895,0.424461560366321
320,cane,12m,FC,0.648950543026585,0.65666013643723,0.51963994197205,0.44808719615607,0.505965704042215,0.4624811398821,0.392986307200981,0.513467001858637,0.419211407043791,0.534377148990998,0.422174377394201,0.503415655444531,0.468577015642058,0.468140571988564,0.520182602254101,0.499293972823127,0.432827270939036,0.412021371752313,0.419486191470393
330,cane,12m,FC,0.647369981663195,0.655127378623723,0.518357020734734,0.445848019952791,0.503232828135657,0.461942084112502,0.399879240584217,0.512785360620007,0.427002012976182,0.529903364574034,0.418497610035833,0.499941976555718,0.46641737260806,0.467751255099147,0.51763049087889,0.498728756141051,0.436975165611797,0.413149981449625,0.414635087157511
340,cane,12m,FC,0.64565073691077,0.652979319305682,0.517531235051372,0.443798788101222,0.499487189893085,0.462316394899968,0.407001822067012,0.512284528369653,0.435101714673743,0.525637123959364,0.415385264645619,0.496843478475114,0.464167616491937,0.467218031900217,0.515204967312491,0.498101556993042,0.440989034086192,0.414479652264024,0.409808004264015
350,cane,12m,FC,0.643525859337477,0.650293691839822,0.516247891154657,0.441188953979096,0.494951672620603,0.462768607852311,0.414286470421282,0.511201862056392,0.443211321795397,0.521540158794096,0.413221075615656,0.494170833303479,0.461783940653652,0.466452758023793,0.512996843919782,0.497037613135884,0.444488226443757,0.416252192036972,0.405004716436426
360,cane,12m,FC,0.640824852551688,0.647175148031303,0.515737418119676,0.438787477420203,0.48994089891433,0.462572920392617,0.421755971526377,0.509233172148452,0.450789421465946,0.517476152685808,0.410660660984563,0.49182461638299,0.459281570055401,0.465243888669335,0.511016955790711,0.495674175181683,0.447310962106583,0.418277523247155,0.400925297961235
370,cane,12m,FC,0.637244200870377,0.643781582530558,0.516121328099894,0.436821809059577,0.484807391247774,0.461571576153992,0.429858191085198,0.506591672124822,0.457737053381544,0.513642853531044,0.407218545691363,0.489579966390911,0.456541418852003,0.463939367702989,0.509223539186876,0.494734494667246,0.449855949909124,0.419862830364415,0.398196355006687
380,cane,12m,FC,0.633272957199149,0.639829133533685,0.517603784530021,0.435668762808781,0.480032650998586,0.459835753622902,0.437993190687408,0.503584274956363,0.464343758548116,0.510309672040621,0.402865166137256,0.487418613024257,0.453468293102749,0.462818323888144,0.507760890838037,0.493996596039887,0.45283175638033,0.420984259585903,0.396533600308592
390,cane,12m,FC,0.628995299278438,0.635421060258492,0.520421605752868,0.434289739257733,0.475806410436114,0.457831991716531,0.446111443078402,0.500538348723042,0.470765374128588,0.507809230730731,0.397751367386403,0.485479074551406,0.449812114713896,0.461630895608343,0.506499291955739,0.493260892556598,0.456401814683323,0.421766248069442,0.395604448891753
400,cane,12m,FC,0.62390761160581,0.630909338994907,0.524581037723319,0.43218529085212,0.472039241236187,0.455133287388146,0.4538793513163,0.497680156313675,0.476858306800438,0.505906258921672,0.392169474299856,0.48369651971042,0.445870847577418,0.459943703464476,0.505340103173156,0.491739462601607,0.459992679582666,0.421972728095681,0.395012361611308
410,cane,12m,FC,0.618511777219667,0.626438342603723,0.529869282205565,0.429871328956605,0.468796175816516,0.452195165772196,0.461267846953306,0.494915159435494,0.482185838906853,0.504360163667171,0.386565815154817,0.482122818700713,0.4417911553927,0.457923193236951,0.504522245914941,0.489057755467316,0.462982400645185,0.421721555905883,0.394640918997388
420,cane,12m,FC,0.613189367957068,0.622303406969585,0.536024380445659,0.427231741314781,0.466203269546924,0.449329038505843,0.468515530964207,0.492344605085879,0.487551261187223,0.502839725226177,0.381173417415746,0.480802779270637,0.437450653606571,0.456217921052137,0.503944170298716,0.485915088664417,0.465668572055509,0.421047733511459,0.394601266766961
430,cane,12m,FC,0.60773157360421,0.618407950579972,0.542821395885103,0.424266693616473,0.464270600331241,0.44662631013448,0.47571984998354,0.489782633441794,0.49335473963875,0.501592509387536,0.375899396916762,0.47959548423481,0.433372947032335,0.454495777388501,0.503387484002925,0.482269498329489,0.467794252577138,0.41988089320349,0.395094155925944
440,cane,12m,FC,0.602270679425412,0.614535501703308,0.550076877388469,0.42196033935025,0.462934261458579,0.443734051015811,0.482965386166983,0.486946598372105,0.500103606635106,0.499874664551193,0.37034133183089,0.478495965806307,0.429840541570981,0.452656235035686,0.502680821692886,0.47867355436355,0.46877543848661,0.418841792537339,0.396351177413478
450,cane,12m,FC,0.597022361774769,0.610647259041067,0.557633596913052,0.420499216459272,0.46197031427376,0.440879337774038,0.490220202318763,0.483836112249417,0.507722425046724,0.497728974532718,0.364687236736414,0.47748896945591,0.426737049853673,0.450700567100778,0.501984034952031,0.475496755578105,0.469344158410171,0.417946821553467,0.397791926227128
460,cane,12m,FC,0.591998813351818,0.606807333860284,0.565342642030721,0.41988782067161,0.461181609919551,0.438012210985085,0.497632488447753,0.480769267262169,0.515802462285672,0.495971323856502,0.359859612772238,0.476403082139369,0.424046000298236,0.448542887458915,0.501110609902286,0.472967537857183,0.469814232464526,0.41720578500652,0.399106092389141
470,cane,12m,FC,0.587072500234393,0.603312894509784,0.573044544174603,0.420212610985849,0.460719852675784,0.434939914433509,0.504472074252632,0.477951139243584,0.524074873968686,0.494152396838988,0.355848885554885,0.475074414024132,0.421575871980783,0.44607206247596,0.499776085013708,0.47096731041172,0.470196060775553,0.416611523984341,0.400677812935085
480,cane,12m,FC,0.582210756439137,0.600348643733886,0.58056101539263,0.421526176617861,0.460780686191644,0.43207565817604,0.510603451692327,0.475342248039634,0.532420582701761,0.491770422600263,0.352840280785106,0.473477372402923,0.418860773515939,0.443618832226336,0.498341561975195,0.46934573522385,0.470538936350965,0.416202110766347,0.40248853243617
490,cane,12m,FC,0.577280387881498,0.597583601881849,0.587713531783512,0.423790419997426,0.461329392362171,0.429960910710836,0.516390625920606,0.472835839680769,0.541029858931927,0.489122557797491,0.350758014169336,0.471647649153987,0.415831529331659,0.441640009882632,0.496983119229217,0.467818157813516,0.470763714493727,0.415771842402753,0.404022703495597
500,cane,12m,FC,0.572653584153452,0.594593138772259,0.594217631441898,0.427034201869421,0.462486621116187,0.429216686910519,0.522269477396108,0.470416093701668,0.5503254842557,0.486320036557164,0.349476149278369,0.469496794408218,0.413189102383598,0.439935219597529,0.495773764206928,0.466783760715527,0.470677674424147,0.414955102007113,0.405443169684354
510,cane,12m,FC,0.567959970736589,0.591746164717351,0.599568308154582,0.431727609281405,0.463433880491228,0.429720435139442,0.528215560952336,0.468123226112061,0.559812411905603,0.483535583267913,0.34879195428595,0.467116543648732,0.411022634997455,0.438655979644171,0.494550065526282,0.466332615766783,0.470254421566914,0.413954179022763,0.406866476529385
520,cane,12m,FC,0.563390771005688,0.589183266984251,0.603823596158869,0.437693358943242,0.463504768656148,0.431314791014461,0.534194777080785,0.465936512488458,0.569307548940529,0.480872939459513,0.34876270356849,0.464786966965424,0.409141831057105,0.437873327527849,0.49331401726567,0.464935422870474,0.469025187006295,0.413148179972352,0.408589492451652
530,cane,12m,FC,0.559078118798697,0.586398150705193,0.607515300444998,0.444212940307244,0.462632817439113,0.433701551694674,0.540262572466448,0.463714166163633,0.578530503510602,0.478908074840299,0.349674967240724,0.462815329308163,0.407911581995541,0.437494760330677,0.492274353498166,0.463394646624026,0.467393186025846,0.412434186658868,0.410803211707887
540,cane,12m,FC,0.555105608237753,0.583193282722551,0.610844189430666,0.451239407150554,0.4608994403522,0.436627434716934,0.546066372445239,0.461465012491645,0.587965934010399,0.477352765476421,0.351923174765722,0.461152595412876,0.407020552602063,0.437804695983222,0.491496947693942,0.461571968886027,0.465554051406408,0.411656572146332,0.41395015355674
550,cane,12m,FC,0.551289517281916,0.579852521335236,0.613927829296574,0.459277387934833,0.458622997917317,0.439972537104439,0.550955648442133,0.459410698019509,0.597381495590254,0.47685690714381,0.355366310535527,0.45991883405127,0.4061503668831,0.43876811328533,0.490765519584307,0.459501254010845,0.463519456657402,0.410778435304132,0.418228552705678
560,cane,12m,FC,0.547736891264597,0.576406252401383,0.61674847328918,0.467576559364871,0.45623780771079,0.443572000576059,0.554514870702951,0.457425211807106,0.606625091861555,0.476687644807791,0.359426087091694,0.45907280435344,0.405608719307428,0.440127803332938,0.490124307554506,0.457063384481173,0.461461849588363,0.409873333164225,0.423179876031869
570,cane,12m,FC,0.544670458444832,0.573085721962414,0.619595884386375,0.475587371816956,0.453561437580072,0.447654572912204,0.556220330197947,0.455215489795139,0.615714864668747,0.476562106500738,0.363785391938563,0.458521553432038,0.405379232352186,0.441585932156996,0.489937295156709,0.454812150163457,0.459901781620669,0.408967776272757,0.429036641718017
580,cane,12m,FC,0.542242089069245,0.569868402284801,0.622294971130802,0.483254561100435,0.450509662580566,0.452047931106115,0.556660209345311,0.453090836678712,0.624710467419494,0.476456819941006,0.368959134829102,0.458350995527074,0.405604484276307,0.442378609270726,0.490216693927935,0.452665195433872,0.458726885909742,0.407745001495219,0.435160577375995
590,cane,12m,FC,0.54047545599664,0.566579339926429,0.624416098723024,0.489708842160605,0.447415220497042,0.456842500805579,0.556092241170265,0.451089777958868,0.633295463688796,0.476443752937443,0.375032040705334,0.45882493762665,0.406653800849371,0.442776319293226,0.490910059840915,0.449966791666005,0.458410425595705,0.406097864954587,0.441523735066416
600,cane,12m,FC,0.539616451930012,0.563152136360476,0.625469674904063,0.494921396089536,0.444526865347426,0.461766026484999,0.554978211412978,0.448892217792534,0.641322222953317,0.476616914629053,0.381683425330061,0.460180965312764,0.40823593469914,0.442866629264091,0.491704210857123,0.446634765445242,0.458779654201858,0.404301265706232,0.448337514644631
610,cane,12m,FC,0.539663309304333,0.559215446564914,0.625356831247912,0.499050756919888,0.442144688565208,0.466554765671736,0.552861100062777,0.446212778886247,0.648604877530402,0.476675040836871,0.389122983854078,0.462047553607423,0.409730563421466,0.44236608550327,0.492194467837263,0.443254889132409,0.45971440053778,0.402551917074,0.456426888720672
620,cane,12m,FC,0.540229065235388,0.55492275044903,0.624389252422132,0.502481477522827,0.440248607542929,0.471165130636125,0.550030962286613,0.443517299090885,0.654427569636977,0.476469893532076,0.397107239382299,0.464260241069175,0.411231660081214,0.441372107859591,0.492179463769113,0.440168876227786,0.461586430655727,0.40051817355494,0.465616372531339
630,cane,12m,FC,0.54095224543653,0.550638962393467,0.622844058314983,0.504922944167025,0.439125450359319,0.475867788602237,0.547158273905518,0.440875168314712,0.658850267112552,0.476132106158958,0.405262120821258,0.467173975681736,0.413447545405097,0.439824056911375,0.492460058132181,0.437456303965322,0.464066196710154,0.398287302324085,0.475183707223239
640,cane,12m,FC,0.541934003843545,0.54635384941847,0.620372266016577,0.506821185749694,0.438907813701683,0.480967073761112,0.544749079145266,0.4384762684419,0.662382717692108,0.475891190600243,0.414046019644483,0.470743372416502,0.4161478963855,0.438415878892509,0.493229594716562,0.435665493079322,0.466747309390122,0.396149909895914,0.485108293609603
650,cane,12m,FC,0.543223889192138,0.542388179764364,0.617048049486528,0.508405850333033,0.439423449257895,0.48590025270629,0.542568929767374,0.436354287160084,0.664414095888279,0.475685337894853,0.423459532920446,0.474645894068301,0.418830706809163,0.43711295318729,0.494492646079899,0.435270577655689,0.469259768379964,0.394122910491387,0.495301616209454
660,cane,12m,FC,0.544888193402173,0.538913323760166,0.61316610786026,0.509132078442629,0.440265466282813,0.490159903931723,0.540828972512085,0.434868607414441,0.664481500741932,0.475662781483208,0.433234937170921,0.478721925323171,0.421489606322999,0.436017033590525,0.497404048533598,0.435393463501838,0.471590124980517,0.39194210387069,0.505540760117282
670,cane,12m,FC,0.546864961463656,0.536075571609528,0.608538933796848,0.509561816272947,0.441405939307669,0.493716761114563,0.539281745309581,0.434145617639281,0.662688053251428,0.475726260363523,0.443132722357588,0.48289617403796,0.423718973987051,0.435235213293544,0.501613031869671,0.435914887784431,0.47345727614626,0.389824158822245,0.515602409430543
680,cane,12m,FC,0.548843995277116,0.533574954426609,0.603217330991769,0.50974175204944,0.442651382420352,0.497063344391874,0.537605138564545,0.434082173969954,0.659499164278366,0.475495068667186,0.45336915354457,0.487221884740426,0.425258946598882,0.4346652681782,0.506716977967557,0.435658866567221,0.475054816805092,0.388207365347641,0.525106778575271
690,cane,12m,FC,0.550871645450013,0.531081430497971,0.597390457835238,0.509732822090066,0.44354482056776,0.500115445265751,0.535611256142944,0.434194928792885,0.655382932270567,0.474115078846699,0.463873126133673,0.49174903017987,0.426374213218581,0.434397674385989,0.512054438501064,0.435584999408268,0.476395927836787,0.387264881744458,0.533446705254253
700,cane,12m,FC,0.552798152025337,0.528775185031476,0.591441038614936,0.509834616288235,0.444232575230766,0.502557790647452,0.533161259138911,0.434214232268485,0.650547571209206,0.471760804891691,0.474445836361546,0.496180715334324,0.427550520322263,0.434374142521603,0.517677605340656,0.436444655684191,0.477317823983974,0.387205886461611,0.540479665433717
710,cane,12m,FC,0.554467553067741,0.527087551486922,0.585510781803972,0.509872538069375,0.444352698938804,0.504912238655778,0.530757228463467,0.434319881084051,0.645291722579672,0.469185054262561,0.485060040470624,0.500248947927272,0.42930606214131,0.434703455966194,0.523443295303943,0.437588087332733,0.477624165295108,0.387783581509644,0.54632512544714
720,cane,12m,FC,0.555978693456748,0.525313918408791,0.579673554729791,0.509236844136602,0.444217477914987,0.507547406136699,0.52815568543695,0.434484598071269,0.639282072963876,0.466767150130786,0.496021251484607,0.504307132983898,0.431703423078128,0.435595233042151,0.529195157135656,0.438408738717475,0.477167735741387,0.388439079976771,0.551328404987886
730,cane,12m,FC,0.557295010516487,0.523464759246985,0.574608323367509,0.507886391400993,0.443829243974881,0.510433364471724,0.525777466109757,0.434955321695919,0.632943912293761,0.464321144286521,0.50777268624445,0.508453890664174,0.434567096651928,0.437165471533962,0.534838796314569,0.439458073696831,0.476121564724613,0.389251087681479,0.555508790660235
740,cane,12m,FC,0.558279319265266,0.522046797827608,0.570243911598518,0.506087498378475,0.443128429407393,0.513387662431554,0.523132327654661,0.435876458370165,0.625940524672138,0.461729173147947,0.519241914026316,0.512772620838286,0.437779195252152,0.439271837556843,0.540151412331921,0.441755266973856,0.475115212352037,0.390448116904784,0.558726428200452
750,cane,12m,FC,0.55889918603555,0.52092683015656,0.566603990980661,0.503798292446523,0.442367714578515,0.516226153859218,0.519691428322991,0.437658493141445,0.61830227513323,0.459077073786662,0.529522665850375,0.51725253831151,0.441424327863363,0.441733237934901,0.545352406774956,0.444998018379489,0.474927063885145,0.391934549534116,0.560994034547794
760,cane,12m,FC,0.55957758257915,0.519800138113468,0.563781031489921,0.501273969369638,0.441574971883286,0.518905525764535,0.515928959968828,0.440136175240952,0.610394380726487,0.456375850080844,0.538609358159896,0.521744492609154,0.445429749772763,0.444181371484652,0.550156849625701,0.448819577934389,0.475383967455966,0.39336762240112,0.562135658871381
770,cane,12m,FC,0.559719322644221,0.518559424095006,0.561918191140329,0.498384021443187,0.440512811447783,0.521254816072582,0.511942396148374,0.443181102087549,0.602490238021914,0.453699856399944,0.546641493708869,0.52626168872677,0.44915209620761,0.446306731310664,0.554608456551991,0.453248383465622,0.476223410783238,0.394876978309339,0.561954491025489
780,cane,12m,FC,0.558982652443262,0.517283815869096,0.561056298934584,0.494860729355542,0.439667159089101,0.523429879695252,0.507956204463176,0.446437493568008,0.595446603162544,0.452012540404482,0.5537143140117,0.530687872020595,0.452669532610141,0.448351849018288,0.558938989468619,0.458275154236421,0.477506674713315,0.396405094387595,0.561201091749064
790,cane,12m,FC,0.55749725643932,0.515875441735132,0.560941459164329,0.490424031878085,0.439266980283652,0.525445832539013,0.503866021020936,0.449917402444812,0.58876088108623,0.450929637076952,0.559541324169243,0.53522523018977,0.456213245261483,0.449865534868571,0.562763805210965,0.463117293603299,0.479369049129103,0.397744686406224,0.560340649941007
800,cane,12m,FC,0.555418769616237,0.514730489241599,0.561436297182333,0.48520372123761,0.438995641061286,0.527169838295476,0.499577720467781,0.453883805806447,0.582499336253438,0.450550853649265,0.564064793482387,0.539581786025872,0.459642003108268,0.451230483095317,0.56590308711237,0.467942380580677,0.48164852487746,0.399185642542002,0.559657395119926
810,cane,12m,FC,0.552854559804527,0.51348584614299,0.5625781153378,0.479313818300191,0.438812157707931,0.528652120744902,0.494961088085153,0.458189615003486,0.576318519715317,0.450399886724381,0.567544322391176,0.543785499111772,0.462993537943787,0.452431639253533,0.568292292496451,0.473052102147691,0.484327283840658,0.400940349736835,0.558624201565044
820,cane,12m,FC,0.54974881033908,0.512216567197636,0.564547933724334,0.473999361933508,0.439042072846608,0.530297288776365,0.489715468877447,0.462506517133508,0.570460384244256,0.450028532397061,0.570420445928326,0.547855957615786,0.466157587896049,0.453342877291573,0.570301562505864,0.477871930884398,0.486651282627607,0.403207735836474,0.55723618415568
830,cane,12m,FC,0.546172117478249,0.510811568699905,0.566885205515453,0.469766964983814,0.439961804156278,0.532325419674636,0.483738147636503,0.466950915178172,0.565080413023386,0.450042501022653,0.573011834925155,0.551584913916901,0.468939479148485,0.454526576197138,0.571810002409262,0.482967321401205,0.488499856923772,0.406111090714213,0.555951007494828
840,cane,12m,FC,0.542537619840367,0.509713913475453,0.569367514291436,0.466288512654563,0.440628187531788,0.534384558699153,0.478033974517129,0.471431813203691,0.560673957540015,0.450551778245925,0.576380376160902,0.554882132521969,0.471178072240561,0.455553376736243,0.572500332966198,0.488661433589162,0.489704762694839,0.409340914681465,0.554551142892003
850,cane,12m,FC,0.538794486631291,0.508901566785666,0.571729039904133,0.46350038984863,0.440723487916061,0.535699753103257,0.472142546573348,0.475973458105368,0.557267916512331,0.451660107994823,0.580438087602968,0.55784239396697,0.473237285101223,0.456227905060021,0.572692486399926,0.495215546730496,0.490214935804964,0.412436249749707,0.552669311415193
860,cane,12m,FC,0.53519341746134,0.508371634453143,0.573967719287933,0.460868597805705,0.440037176634451,0.536223027963489,0.466240779456439,0.480658145683071,0.554802661328136,0.453130154656329,0.584579950756514,0.560457963484037,0.475208579116566,0.456590699070732,0.572423209165739,0.501209935176693,0.489743739454018,0.415291085949817,0.55043617103679
870,cane,12m,FC,0.531910308986505,0.508385009345127,0.575649763038152,0.458118167165159,0.438963956589686,0.535910350203029,0.461062814947276,0.485371084980477,0.552741722991003,0.454769698271292,0.588826925248175,0.562971167958982,0.477198817815138,0.456933455622688,0.571591900301169,0.506090543804378,0.487488242636769,0.417821931304596,0.547757371888341
880,cane,12m,FC,0.529013531304499,0.508929869736144,0.577240529691782,0.455264915191589,0.436999970845956,0.534910409780985,0.456911678877986,0.490043326768907,0.551200950339748,0.456432490372399,0.593271821565447,0.565072961981877,0.479508983363726,0.457006784165271,0.570207991101851,0.510453360747232,0.484326267838847,0.420124862962501,0.544264611345527
890,cane,12m,FC,0.526930379282862,0.509952680224441,0.578598740454577,0.452029820881294,0.434518739053297,0.533100609827057,0.452611286151355,0.494633068744719,0.550374809242295,0.457922612681226,0.597530984352631,0.566650360423075,0.481094829260914,0.457108933354992,0.568251549814766,0.514629738228547,0.480751982690752,0.422377230509761,0.54054267453724
900,cane,12m,FC,0.525448865191364,0.511143782406597,0.579493331969648,0.44893336966675,0.431697552446939,0.530646091681236,0.447301518999643,0.499114790194634,0.550261986786869,0.45876426148489,0.601042452671107,0.568119883119522,0.482009911982066,0.457380986888123,0.565699670409688,0.518408275258337,0.477002931009865,0.424456468785989,0.537384299689585
910,cane,12m,FC,0.524323878175154,0.512418817279846,0.579779556457427,0.446510873024094,0.428828894238146,0.528014259914619,0.441805202311473,0.50358174656898,0.550744964138354,0.458562153568298,0.60371413939965,0.569567715810494,0.482047700801208,0.458056713508815,0.562560909668705,0.52117846056644,0.473274105776547,0.426420611040839,0.534093610968989
920,cane,12m,FC,0.523445001952441,0.514016664014189,0.579475783832908,0.444663103202643,0.426010041700537,0.525381462862035,0.436104673536473,0.507841174865536,0.551571525551862,0.457795972564047,0.605541037635232,0.570697965546234,0.481462957879987,0.458883988896104,0.559481738471599,0.522924094386666,0.46974808558623,0.428270196090386,0.530676805148499
930,cane,12m,FC,0.522656895922372,0.516262061744113,0.578320190166767,0.442940094047164,0.422793858361968,0.52225798213987,0.430012828660218,0.512023892938538,0.551642928764279,0.457064333294461,0.60641087696713,0.571513289577227,0.480985357961179,0.459605188919816,0.556494197716982,0.523648963373987,0.466129399463636,0.429794467028905,0.526736388959909
940,cane,12m,FC,0.522229278802476,0.519009731264129,0.575840060915016,0.441820235475888,0.419031743125273,0.519288445151617,0.424056099403647,0.516206604426027,0.551189399736332,0.457070829653256,0.606581214581928,0.572166228469766,0.480678132408348,0.460165924349808,0.553826332753659,0.523117494994011,0.462522997852867,0.430945402713647,0.521834723031255
950,cane,12m,FC,0.522022523109375,0.522012485406294,0.571511454653617,0.441106237616007,0.414882411660489,0.516696466401576,0.418878481180983,0.519936420678619,0.550994613552757,0.458035221534125,0.606408673199815,0.572821137358914,0.480335577983163,0.460648430025765,0.55125803039883,0.521699760670371,0.459259160512659,0.431897249178593,0.516133020919759
960,cane,12m,FC,0.521572876504765,0.525181670689641,0.566313876545237,0.440945346706855,0.410712494253412,0.51469862785956,0.414289041008541,0.523353018100341,0.551041257126832,0.459513316516772,0.60573363865753,0.573310807964968,0.479992932015819,0.461150883200735,0.548537287562698,0.51971439718267,0.456451802050617,0.432707121665382,0.509912327717132
970,cane,12m,FC,0.520814427210872,0.527828794657329,0.561365374763345,0.442054561180326,0.40682374392204,0.513185119143415,0.41049593951457,0.526353462629552,0.551391926047386,0.462216492765064,0.60463629426199,0.573629938198787,0.479803797409732,0.461998386628255,0.545616810372947,0.517476287350344,0.453598967508056,0.433427780392683,0.503513596857256
980,cane,12m,FC,0.520091536876441,0.530312850269742,0.557224480426254,0.443911820614286,0.403811768808477,0.51194531884561,0.40768048858871,0.528848027052674,0.551255103217432,0.46605289112346,0.603032869910485,0.573816831116274,0.480006280490481,0.462864153485558,0.542412662220473,0.515172916195907,0.450815411005136,0.433948847533435,0.497139247503464
990,cane,12m,FC,0.519565836620347,0.532625753563958,0.552502531110807,0.446368545096934,0.402001763178601,0.510834187934885,0.405735164119257,0.530547097196868,0.551119455266721,0.470491570673129,0.600802541349049,0.573595851539056,0.480359491942312,0.463943018503331,0.539174604971029,0.513424334462632,0.448122860594365,0.434270104819976,0.490579471666453
-1000,grasp,12m,FC,0.475772041003837,0.559215392153314,0.553358951843141,0.468302981779079,0.474974435443377,0.499881959581355,0.390889070418141,0.494779647174871,0.457500911270031,0.500855330273109,0.539981089003638,0.502818513093509,0.386272375358277,0.49714617284238,0.535777976476701,0.499561466287834,0.414011391555465,0.467383952849212,0.511532196455011
-990,grasp,12m,FC,0.476818124784016,0.558363979629683,0.542364908832347,0.470650323998551,0.475484051163853,0.500993352284232,0.401283770001895,0.489626570370714,0.457994259141821,0.502845833391465,0.54321848537793,0.499557072505569,0.389454254785556,0.497137668845283,0.532075866774423,0.495836911631653,0.412447868279389,0.464602468908701,0.506003949969697
-980,grasp,12m,FC,0.477971756929892,0.557714105405222,0.530911424853879,0.473119613492509,0.476822407976325,0.501985715016906,0.411568414843325,0.484939362619089,0.458325873562103,0.504377016223391,0.546363108716081,0.496232536772349,0.393118925925612,0.497221068886955,0.528331667429152,0.493493747103499,0.411171096160168,0.461666618267699,0.501104002509134
-970,grasp,12m,FC,0.479536305086386,0.557337675471563,0.519221718092146,0.47546373909259,0.477918729718337,0.502760005052959,0.421119905060354,0.480745485324409,0.458769254615343,0.505467639841972,0.549484094175849,0.492765221280199,0.397165959338913,0.497284946299923,0.524840377758675,0.491660629691336,0.40961055311232,0.458735653304161,0.496957363574426
-960,grasp,12m,FC,0.481330864497837,0.557170737152313,0.507349892648179,0.477472961136663,0.478060816346948,0.5026271880243,0.428020619086296,0.477432701273672,0.459351954965039,0.50578596981979,0.552578580234345,0.48944600331034,0.40118253248452,0.497497638976331,0.522152858069892,0.49051745248575,0.408351102223328,0.455755786647453,0.493461396177149
-950,grasp,12m,FC,0.48337228988151,0.556991834404093,0.4953315123647,0.47949984469531,0.477476724437775,0.502201097205861,0.432529978585601,0.474990751990575,0.460588597356497,0.506150774844671,0.555489775346784,0.486346476795452,0.40521359754324,0.497893627126399,0.520284133836157,0.490014308698275,0.407771124878362,0.452510069078611,0.490536998229093
-940,grasp,12m,FC,0.485744039327152,0.556642502170293,0.483474463256114,0.482083008815524,0.476105254902956,0.501778567221366,0.435937499517111,0.473154617195641,0.462706547432657,0.506449918670471,0.557979776150419,0.483379372974035,0.408968176284031,0.498413996398066,0.519017073487877,0.489771969755593,0.407844412428184,0.448824479508752,0.487899574094026
-930,grasp,12m,FC,0.488308025096361,0.556111063966526,0.47204047111552,0.485057451282905,0.474007913172178,0.501359077458776,0.438800660054401,0.471563199203755,0.465253542978476,0.507078453069196,0.560271232681574,0.480661213634606,0.412522521166921,0.498954992862574,0.518158419312887,0.489317372999055,0.4083914801691,0.445083427262446,0.485575868835772
-920,grasp,12m,FC,0.491050025942466,0.55592734679799,0.460988733884662,0.48863147092349,0.471249260018719,0.501045113076756,0.441456618014851,0.469762340759326,0.467983515432535,0.507547306130589,0.56204760122361,0.47804104583383,0.415825519952755,0.49955981433699,0.517638624498263,0.490077156009978,0.408986001074599,0.440931374691293,0.483928606190045
-910,grasp,12m,FC,0.494115568515319,0.55600483986239,0.450454257241932,0.492779015824646,0.467693913154868,0.500617093512232,0.444012640151324,0.467366910553518,0.470556439811775,0.507779953415447,0.563482518165968,0.475467111141559,0.418813574870806,0.500178735574352,0.51749760607372,0.491642382550106,0.409564431931017,0.436376721534323,0.48308392996704
-900,grasp,12m,FC,0.497581446105018,0.556379995889844,0.440154121231795,0.497348133157216,0.463938961438721,0.499938500643306,0.445592629134128,0.464793259496641,0.473158018111303,0.507904501640142,0.564393627255943,0.473316426701274,0.421290483335616,0.50045522289374,0.517851787673676,0.492719418022019,0.410453064640279,0.431708269343409,0.482802241391243
-890,grasp,12m,FC,0.501052926378454,0.556895870972769,0.430565939917622,0.501778701126109,0.460243271207764,0.499536516057061,0.44590203029098,0.462580715489208,0.47559851321135,0.507804136161954,0.564621528173099,0.471642572036024,0.423553778301533,0.500172898772704,0.518830440471776,0.493058938760126,0.411632460689639,0.426931222663235,0.483037434331799
-880,grasp,12m,FC,0.504322118120617,0.557517209564824,0.422082514973346,0.505984387127346,0.45702961423681,0.499639507874241,0.445227921249622,0.460783741546422,0.477476808274508,0.507529751267723,0.564262489206829,0.470256279723868,0.425480208439325,0.499060783008175,0.520301222805275,0.49292327359282,0.413388877045474,0.42225219622154,0.483594360409217
-870,grasp,12m,FC,0.507597752164811,0.557944287879241,0.414445168957165,0.510186475175545,0.454203122130415,0.499903732156151,0.443755103424637,0.459005907292313,0.478414450026243,0.507062854090696,0.563633285442976,0.469195187783834,0.427089673777765,0.496908091999244,0.521629680270697,0.492367570641444,0.415695273680228,0.418231900473417,0.483845185096525
-860,grasp,12m,FC,0.510854635584523,0.558328356716994,0.407892307628381,0.514734304234635,0.452158065711142,0.499735040543659,0.441435595354363,0.45804093960658,0.478635877542609,0.50644769521792,0.562982743983803,0.468268032684509,0.428811895494827,0.493324163203444,0.522700667157912,0.491301840253785,0.418613584747097,0.414808933933631,0.48402400580572
-850,grasp,12m,FC,0.514090028400274,0.5589736257251,0.402689578090117,0.519233629435318,0.450813221627657,0.49918836319612,0.438157184220592,0.458074623305785,0.478173602100683,0.505446341544438,0.561896084931671,0.467509881361569,0.43103984844423,0.48925062057166,0.523447498958364,0.489575134485257,0.422350764263932,0.411745426015666,0.483827005678938
-840,grasp,12m,FC,0.517216870084208,0.55950757081479,0.399627972390853,0.523580091778404,0.449819861899501,0.497927882416341,0.434631144567316,0.458177540892636,0.47704159948701,0.50424404467652,0.560138651938097,0.467100165740554,0.433458551443691,0.485364697727443,0.523751014821874,0.487090515001022,0.42669789866856,0.409494892740259,0.482745418402072
-830,grasp,12m,FC,0.520425683452132,0.559634608603186,0.399142106592084,0.528110107483102,0.448929620431299,0.496590226608073,0.430775597944647,0.457694981007647,0.475488772927118,0.502846962011421,0.558461611622483,0.467075879971944,0.436412414499449,0.481875774219517,0.523364437861777,0.484757503541666,0.431303684400042,0.408042148023553,0.480942764817307
-820,grasp,12m,FC,0.523615011703043,0.55988693847773,0.399763525005349,0.5329200714403,0.447985566836125,0.495354234030598,0.425458296953712,0.456664394819075,0.473445958192979,0.501320931453397,0.556332033922647,0.467711016118629,0.440631893937636,0.478615483450785,0.522255781545242,0.483306653890088,0.435839637606936,0.407483141118227,0.478939407914698
-810,grasp,12m,FC,0.526687025670945,0.56013374418049,0.401213385577988,0.53785745711001,0.446831632261827,0.494090744731653,0.419888263619889,0.454880473627845,0.471187098621484,0.499650128276671,0.553562274540183,0.4689688134815,0.445916932399778,0.47546984062298,0.521032949510808,0.48214447023392,0.44042711164251,0.407662533512276,0.4766792163263
-800,grasp,12m,FC,0.529607670967475,0.560512287612858,0.402942578239968,0.542833179225023,0.445758807943941,0.49300051412393,0.41560710017033,0.452024732200493,0.469128888769901,0.497519180644511,0.550294096492411,0.47080766189905,0.452173545351098,0.4724874549042,0.519769316889854,0.480779218068534,0.444951175731993,0.40860720841716,0.474157559856202
-790,grasp,12m,FC,0.532407882969625,0.560928925751716,0.40422425563659,0.54802293916522,0.44485244406091,0.49175937868177,0.411756645311506,0.448649814223453,0.467393294600641,0.495042205826307,0.54651100538817,0.473170113588073,0.459888306276529,0.469950973503954,0.518685538202656,0.479615866103933,0.449486161863987,0.410511633571046,0.471591994315943
-780,grasp,12m,FC,0.535146323436652,0.561532190659959,0.404905541975143,0.553343769234366,0.444128486425469,0.490554585972962,0.408014148486598,0.445568292992514,0.465716600960677,0.492294260791097,0.542555313141573,0.475682704557517,0.468651232747129,0.467751544838199,0.51789937476642,0.478525711226126,0.453842844422885,0.413530641545997,0.469119575678946
-770,grasp,12m,FC,0.53781036387607,0.562403981621093,0.405396233053552,0.558877677050531,0.443666513883745,0.489633243229487,0.404726188582999,0.442625538432658,0.464424228082894,0.489423241044266,0.539194405995342,0.4780703446491,0.477704285888109,0.46569966029037,0.517327838171603,0.477408740997474,0.457696642459106,0.417223987208775,0.466845199452277
-760,grasp,12m,FC,0.540268689832859,0.563132113089793,0.40649101513908,0.564440988247395,0.443357358045569,0.488746490942735,0.402665390410721,0.439908573085542,0.463643739993643,0.486664016876846,0.536622589121698,0.480265169117818,0.486310705750036,0.463970604792575,0.51689320353895,0.476298900567761,0.460557963726191,0.420978513170826,0.465075315634172
-750,grasp,12m,FC,0.542406727749573,0.563273451218989,0.408090577142399,0.56985541701371,0.443129446600141,0.487824914125084,0.401842638639948,0.437322811084407,0.462680605204328,0.48399610901447,0.534660551302232,0.482127121519274,0.494430170967988,0.462584873099125,0.516672801836832,0.475255105181059,0.462723538353803,0.424738275818503,0.463534033074672
-740,grasp,12m,FC,0.544073009327675,0.562793586174344,0.41041713891987,0.574829542525324,0.443122216450579,0.486902008898143,0.401810521200113,0.434797467679883,0.461557781445793,0.481662348219934,0.533145816654663,0.483862761718424,0.502416955635542,0.461525004233958,0.516845740448552,0.474253557570823,0.464763186025528,0.428485339979523,0.462384181522051
-730,grasp,12m,FC,0.545254052246953,0.561755550118952,0.413427908798772,0.579040995367068,0.443284763781594,0.485852968133545,0.402797368456977,0.432518444742608,0.460405879310624,0.479726135307718,0.531961077750992,0.485640719016853,0.51021794870499,0.460661786418637,0.517547295451602,0.473268153891322,0.466793553907306,0.432145938151645,0.461825491686472
-720,grasp,12m,FC,0.546062986611755,0.559927146412792,0.417312617242074,0.58292901073638,0.443750159618827,0.484704359644767,0.404285550611412,0.43050318693131,0.458813103479679,0.478128523428301,0.53107307211373,0.487505650527125,0.517469516190971,0.459890885025492,0.518485314688606,0.472834727148972,0.468888817014786,0.435827041551056,0.461573125478901
-710,grasp,12m,FC,0.546312511815899,0.557260537109494,0.422168870094198,0.586222082328936,0.444226698506897,0.48348639507627,0.405566576202561,0.428552821140592,0.457755003993303,0.477091769141642,0.530845802506595,0.489314612647442,0.523838950376883,0.459645639898628,0.519698064738199,0.472824798368439,0.471016827916705,0.439791091243869,0.461718435289456
-700,grasp,12m,FC,0.546042327461529,0.553843353368116,0.427782368665675,0.588661883861451,0.445087367548779,0.481766092457074,0.407656718130431,0.426852509686261,0.457029119635514,0.476782209360299,0.531464283912464,0.491059916323156,0.529258719082748,0.460301674572532,0.521111964340959,0.473100200058139,0.473437669582156,0.444231393529406,0.461933777460174
-690,grasp,12m,FC,0.545418930528283,0.549606267126568,0.433769279577914,0.590267762530327,0.44612622437736,0.479826947835982,0.410691558722989,0.42512675396307,0.456575133382294,0.476999631387402,0.532199207396406,0.492675564388253,0.533709087851587,0.461503641726802,0.522277721586361,0.473575495018506,0.476195413453378,0.448369456845992,0.462387115741347
-680,grasp,12m,FC,0.54456577461482,0.544792131770425,0.439878808411961,0.591716208140586,0.447459673702565,0.477684169852853,0.414555003154524,0.423275085412221,0.456638089337726,0.47780555846736,0.532963669055075,0.494099147453438,0.537410326801167,0.462835377644926,0.523094694658528,0.474233893244826,0.478539706155649,0.452296861480887,0.463068058937894
-670,grasp,12m,FC,0.543593281566297,0.539516006816452,0.446899976878736,0.593238745877591,0.448852690306392,0.475401583996932,0.419372364644044,0.421916543620478,0.457782295468483,0.47901453251502,0.533323978537966,0.495078446247782,0.540388849438678,0.464146649727937,0.523850726381745,0.47508302525306,0.480758982143886,0.456385042152931,0.463868658819821
-660,grasp,12m,FC,0.542682516314465,0.534071041323049,0.454367861477158,0.594782396838249,0.449486782240043,0.473026109123108,0.425124644440049,0.421139265553316,0.459733943066419,0.480846255441965,0.533125762051643,0.495558695284361,0.542454385938437,0.465332062546088,0.524444806406209,0.475995798650915,0.483146875004277,0.46039945609726,0.464961338419841
-650,grasp,12m,FC,0.541869695456493,0.528726579896557,0.461707796769433,0.596415765890288,0.449279097274457,0.470515034436653,0.431536167407042,0.420310786276038,0.46164342423465,0.483228142735854,0.532642263528412,0.495466006179779,0.543791685068718,0.466355987300738,0.524770643139035,0.475882291249026,0.485612023001743,0.463961300919475,0.466505014746238
-640,grasp,12m,FC,0.541320827075355,0.523734160311546,0.469728642555039,0.597855007996403,0.448744364636984,0.46827589476284,0.438259159137345,0.419587853634474,0.463648214752557,0.485966983565619,0.53173749769149,0.495017936054879,0.544792836470789,0.468013332900383,0.525227754308998,0.475486674545585,0.488133462418759,0.467616774669001,0.469008549019822
-630,grasp,12m,FC,0.541299967884152,0.519005511589051,0.477650612692261,0.599259932474408,0.448200362704291,0.465802458665681,0.444988848901082,0.419622320562759,0.465720141008174,0.488891155675802,0.530191901281499,0.494209133178429,0.545570137544237,0.470041138838877,0.525800586403659,0.474954609663341,0.490592158152635,0.471327647651719,0.47159982524088
-620,grasp,12m,FC,0.541630766486578,0.514504399874805,0.485081617362303,0.600709116220107,0.447997652798373,0.463071788898487,0.450793647483579,0.420384745661283,0.468038069525075,0.492018805692812,0.528231045386998,0.493006586457279,0.545982848674678,0.472181151106094,0.525979070999689,0.474438325598584,0.4924547573556,0.474945797658468,0.474132980372936
-610,grasp,12m,FC,0.542474401747805,0.510628153072052,0.492047203913643,0.601878568093686,0.447680250362042,0.460268639379102,0.45669026435718,0.421706076827778,0.470678689971238,0.49557579448804,0.525983723856381,0.491800764672123,0.54569278545753,0.474479869118249,0.525925877820865,0.47378751518153,0.494001444689007,0.478344351541752,0.476528489030469
-600,grasp,12m,FC,0.543958215086852,0.507430700892707,0.49867045992624,0.602860182480282,0.44680715725338,0.457495429721422,0.462366167684232,0.423713784369575,0.473656428976937,0.500233328923945,0.523546462383888,0.490617729430818,0.544362077409052,0.476609926756823,0.525791791545781,0.473635882269386,0.495372872609511,0.48155263849033,0.47886393648221
-590,grasp,12m,FC,0.545761562039396,0.50482290870201,0.504645432283451,0.603810285531391,0.445583119492972,0.454842873481446,0.467379828073516,0.426351693744875,0.476829976706197,0.505642296661441,0.521470022104269,0.489443097658925,0.542240285674655,0.47833776229336,0.525593666660712,0.474251199593917,0.496753371448964,0.484347915684499,0.481000041944532
-580,grasp,12m,FC,0.547906803143597,0.502873411556959,0.509703104495213,0.604593721184972,0.4440012782915,0.452378266236922,0.471720830506133,0.42897279930835,0.479743499271308,0.511131376540035,0.519499059085344,0.488465316455577,0.539867574136777,0.479643791682145,0.525183146326116,0.475537774444376,0.49823074268701,0.48685387325035,0.483036250172791
-570,grasp,12m,FC,0.550209147539449,0.501387036666925,0.51442933142879,0.605079680417849,0.442259063193622,0.450200680710631,0.475923778931019,0.43143835480542,0.482147332943696,0.516428693779175,0.517324160738769,0.487690501998781,0.538081110865292,0.480829880494407,0.524383095095121,0.477180312655826,0.499772058499249,0.488751184238124,0.485167065453191
-560,grasp,12m,FC,0.552540921493764,0.499894042676045,0.518711319354455,0.605005640032748,0.440638468460665,0.448527533837288,0.480207637253123,0.433544520543552,0.484106075498751,0.521585482429893,0.514873378318071,0.487269376949709,0.537174812954737,0.481967235181312,0.523276463460715,0.47984785571137,0.500598078510302,0.489797690146031,0.487270145825745
-550,grasp,12m,FC,0.554912540174822,0.498085766645655,0.52196705688611,0.604378013079996,0.439059381941592,0.447462906660918,0.48427665679817,0.435197419898234,0.485532471714061,0.526485241519584,0.51214634967153,0.487167577884902,0.536985261080321,0.482670848792689,0.522095746678537,0.482793500354259,0.50164900592998,0.490296841587708,0.489238610241695
-540,grasp,12m,FC,0.557275995564132,0.49644854098564,0.524065224560687,0.603267361089206,0.437600753353547,0.446704702233755,0.488226209370062,0.436675134078837,0.486357615206394,0.531146501702316,0.509198300131983,0.487387827991092,0.537178368800704,0.4829148814995,0.521033995458734,0.485985495572288,0.502649576780259,0.490130820933808,0.491524840050337
-530,grasp,12m,FC,0.559350807146428,0.495199283063596,0.525252563543373,0.601679300311412,0.436311845002708,0.446277175700202,0.492062390368946,0.438142577576432,0.486921590675896,0.535784061896332,0.506161318886343,0.487805234722461,0.537942881561317,0.482798172226506,0.520293093889636,0.489495054628444,0.503576172627021,0.489233083992883,0.49381569884469
-520,grasp,12m,FC,0.56097477899141,0.494526752618176,0.52567154951172,0.59968083361793,0.435201568296723,0.445696198637622,0.495902576015991,0.439669114063583,0.48748764308336,0.540564393146505,0.503513167200795,0.488178386705652,0.538996263898232,0.482605263556389,0.52054866877618,0.493130035545432,0.504627242917054,0.487754452718488,0.495834098490871
-510,grasp,12m,FC,0.562031300574938,0.494668697405563,0.525444234931937,0.597043557391551,0.433798707062255,0.445656711369887,0.499742038611591,0.441005217559811,0.488196639295007,0.545359609918824,0.501452068838625,0.488721450816635,0.540394061567332,0.482351882391207,0.521487593092408,0.496556985205988,0.505328906040679,0.486178511247953,0.497618692859376
-500,grasp,12m,FC,0.562493933756618,0.495734506686131,0.524595995024886,0.593693900783733,0.432514909318659,0.446081564820825,0.50307199061399,0.442518644895332,0.489158676740649,0.549779807811275,0.499946458403631,0.489329492372645,0.542229550216885,0.482238831562014,0.523024974413319,0.499809240556485,0.505800835555334,0.484399751390594,0.498887786830504
-490,grasp,12m,FC,0.562608886476214,0.497649319754256,0.523061515009948,0.590063083144324,0.431676031870778,0.446600893272081,0.506392906858133,0.444103627643163,0.490074962039519,0.553735674572105,0.498820301468029,0.489773139764921,0.544194430796086,0.482019954450026,0.525162644358848,0.503044925325397,0.506016627550507,0.48274725488344,0.499844918535896
-480,grasp,12m,FC,0.562586576069997,0.500253478593603,0.52103690911184,0.586381919073834,0.4312574307884,0.447439989844446,0.509358148382485,0.446044367458598,0.490291147223459,0.557524694993905,0.497620542821127,0.490029328584228,0.546156820224637,0.48180976877949,0.527547075932553,0.506093805683594,0.505737052572596,0.481309776956313,0.499712122107497
-470,grasp,12m,FC,0.562577882663912,0.503437849029199,0.518085044444066,0.582386189349487,0.430919805585527,0.448484652037278,0.511851968516039,0.448354644329954,0.490231671179956,0.561213156099803,0.496600149373727,0.490438486841278,0.54809226228056,0.48187616451282,0.52996698133316,0.508458121295976,0.505048408670247,0.480190952448696,0.499409726679658
-460,grasp,12m,FC,0.562651148909505,0.507305571084816,0.514541390178388,0.578531107197571,0.43055320035622,0.449152387987192,0.51370026526366,0.451129348280213,0.4902587441931,0.564567115020519,0.495924556516094,0.490744148393191,0.550017786668959,0.482082503438739,0.532614472686495,0.510409530468904,0.504391524228908,0.479572686067716,0.498956084825951
-450,grasp,12m,FC,0.562859200145488,0.511990989134506,0.511044788579673,0.574921887238545,0.43020418163689,0.449439302613865,0.515309509880325,0.454816224891477,0.490289478571866,0.567865447459758,0.495649193866078,0.490768094331058,0.55195611837992,0.482256462932247,0.535275381537827,0.511744096606418,0.503236375128687,0.479687562262805,0.498413995913286
-440,grasp,12m,FC,0.563040334027406,0.517378047082363,0.507083676621574,0.571456782002533,0.430227502490828,0.44928056545638,0.516515148588048,0.459262484421632,0.490324361387473,0.57138119895345,0.495885681687107,0.490539258919506,0.553631803151165,0.482187322849935,0.537451409951513,0.512451484284395,0.502292363549256,0.480010829618887,0.49773317142037
-430,grasp,12m,FC,0.56316171760131,0.523301288203937,0.502651396091023,0.5679051736742,0.430535382694523,0.448930028199671,0.517144546218406,0.464081190940037,0.490073930647809,0.575428242061201,0.497558121762385,0.489920708455143,0.554974275374659,0.482457552518814,0.539042244425908,0.512261458097398,0.501826335673247,0.480248401782305,0.497215495024588
-420,grasp,12m,FC,0.562839551227469,0.529475894902706,0.498510865478152,0.564634208047929,0.430892186866247,0.448310927593754,0.517171634498059,0.468932534193986,0.489307256532886,0.57936586331379,0.499865751011423,0.489075618251513,0.555979265145588,0.482876806486383,0.540255518973794,0.51085447330135,0.501378667838194,0.48003950377619,0.496879772769328
-410,grasp,12m,FC,0.561916020530219,0.535830695319496,0.494609522083291,0.561122602539174,0.431300782469444,0.447815286543889,0.51684471701982,0.474607853356701,0.487741234303429,0.583180656487,0.502331494041051,0.488107496302489,0.555982715984562,0.483274883414969,0.541141879371798,0.508665085749767,0.500951820321487,0.479635591183973,0.496546920871875
-400,grasp,12m,FC,0.560568900132899,0.542370417521939,0.490951171862051,0.557049271072075,0.43194755168087,0.447740315159364,0.51719182776676,0.480523317353884,0.485997625384331,0.587366711282273,0.50487909723302,0.486805514665508,0.555040528968342,0.483712074400791,0.54132116312759,0.505807277192196,0.500723588079268,0.479155450044534,0.496448630666078
-390,grasp,12m,FC,0.558960327774002,0.548465084568295,0.487416446504685,0.552897715420081,0.432648892891615,0.447946543701178,0.517732572534356,0.486329436014813,0.484085107484957,0.592023092440119,0.507277285009151,0.485350287821421,0.553331477392091,0.484101456764683,0.540824797502791,0.502459952527476,0.50098129625287,0.478635163518636,0.49652963847405
-380,grasp,12m,FC,0.557213759885667,0.554336209708707,0.483875413711738,0.54881822809462,0.43328802332222,0.449043603655318,0.517688012377542,0.492095680262959,0.482030216586286,0.59673158627414,0.509646491873729,0.484301615779365,0.551064456042584,0.484145956612099,0.539813449486913,0.499062826813077,0.501996142802523,0.478119608815907,0.49677516215027
-370,grasp,12m,FC,0.555318966333918,0.56000457055256,0.480017799209351,0.544301152749893,0.43408559339365,0.451471050383755,0.516920791904082,0.497987445194389,0.4799330817651,0.601275760038872,0.512022768289101,0.483837004247113,0.5480414860241,0.483888800665218,0.538226375639541,0.496101756428325,0.50332613457555,0.47715787450155,0.497081127466388
-360,grasp,12m,FC,0.553250200908499,0.565075850185363,0.475940542168285,0.539916256887873,0.434972259680091,0.455116814097252,0.516060181731814,0.503929049337865,0.477523602408832,0.605834404479468,0.513725057958744,0.483641245507992,0.544675675554454,0.48345119494284,0.536345654590587,0.494971065310272,0.504638009115556,0.47600746680823,0.497084778279689
-350,grasp,12m,FC,0.551168887296863,0.569539394443859,0.471242832366113,0.535955851762086,0.435694967475142,0.459809202313795,0.515475071890326,0.509819962348634,0.47545777618378,0.610224190730375,0.514157440822344,0.483679692275479,0.541452932713573,0.482991733935648,0.534290832499683,0.493994358613278,0.505683426576515,0.474725132323045,0.496832849282499
-340,grasp,12m,FC,0.549045963694296,0.573818016393002,0.466601275010104,0.532424873671184,0.436178483878048,0.465510505985143,0.515375125424573,0.515408929463905,0.473649686432561,0.614044326013001,0.514372071072731,0.48450342435887,0.538883595272597,0.482724252226228,0.532153000709195,0.49291900129776,0.506285960482956,0.473865536405938,0.496417966162755
-330,grasp,12m,FC,0.547050622294181,0.578196158675574,0.462112173030045,0.529487906743275,0.436849163478907,0.472119778881642,0.51527501724623,0.520648835027264,0.472050103913241,0.61737684712132,0.51450915060818,0.48637711096718,0.536636188214467,0.482823488807992,0.530171556807437,0.492280630840089,0.50655326405793,0.473128647716959,0.495806236850982
-320,grasp,12m,FC,0.545083120955753,0.582541869587517,0.457685223962491,0.527389624527014,0.437801438785993,0.479178174838733,0.514588084628923,0.525805586282789,0.470683660573846,0.619664227869183,0.514591527155171,0.488845713520245,0.53476649273084,0.483302060321547,0.528632278166291,0.492556243017363,0.506410233575373,0.472412422004128,0.49486073656729
-310,grasp,12m,FC,0.543235747593503,0.585987408620495,0.453488706108179,0.525924750558207,0.438931441898597,0.486151540573447,0.513755776142933,0.530742375058219,0.469611287288452,0.621102127600813,0.514677346120302,0.49145750904826,0.533011613545506,0.483911553570716,0.527351473352033,0.493795974382401,0.506144042679246,0.471712199592076,0.493650406946619
-300,grasp,12m,FC,0.541602347017253,0.58895257830357,0.449676614278114,0.524540753355525,0.440294798373612,0.492435033452847,0.513019211493062,0.535350757961709,0.468974604252934,0.622127917959491,0.514830118646635,0.494295800486564,0.531603704831566,0.484408380191256,0.526322955911926,0.495708253405488,0.506311471229831,0.470818018954488,0.492003604872248
-290,grasp,12m,FC,0.540178602753961,0.59134369411299,0.446208010899274,0.523075261988917,0.44219659669519,0.497730020555188,0.512261461255573,0.539393391119671,0.468647669633138,0.622496974703866,0.515114064753962,0.497732724679886,0.530681451423626,0.484523379650692,0.525141569384103,0.498429267987972,0.507553363501648,0.469861095174555,0.489637382991855
-280,grasp,12m,FC,0.538941032024388,0.593178341097251,0.443375989795608,0.521865022005828,0.444534655197988,0.502256594593869,0.510628780368668,0.542686294550941,0.468273740213977,0.622390071483785,0.515382954727093,0.501834830778876,0.530057427168834,0.48418808598318,0.523737372394831,0.501941822260267,0.509615493851294,0.468836745853964,0.486828059847533
-270,grasp,12m,FC,0.538065159831283,0.594491293607211,0.44185172567127,0.520662169753487,0.446907695025105,0.506680348814185,0.508422123953411,0.545381633291897,0.467853225380673,0.622005787832851,0.514979564690101,0.506360199254125,0.529969379088031,0.483298785145081,0.522149321876535,0.505820472139034,0.511772544363709,0.467619204268008,0.483761400956005
-260,grasp,12m,FC,0.537243967254216,0.5952399347864,0.441836750400751,0.519454378502532,0.448905298990693,0.511139955425664,0.505682703825136,0.547307829605862,0.467311141080602,0.621642193499111,0.513726811751236,0.511062110823948,0.53012260241176,0.482063491402776,0.520968706318075,0.509415519197925,0.513897635710725,0.465675495752795,0.480034838688876
-250,grasp,12m,FC,0.536423576000871,0.59563851727455,0.443876870026184,0.518377132608569,0.450650845951572,0.515892853391295,0.502240548325431,0.548558357312315,0.466300014610934,0.621204729876441,0.512173803935526,0.515538057520064,0.530468975033457,0.480502929904824,0.520187487297381,0.512375063477167,0.51617400605783,0.463087895651282,0.476128448338876
-240,grasp,12m,FC,0.535500114025013,0.595594980296864,0.446941421937233,0.517381014710889,0.4520328127273,0.520695662530012,0.498207976629927,0.549392458340343,0.464955856453926,0.620621833938465,0.510689819303342,0.519736021680293,0.530966588005258,0.478956188876152,0.51912755123095,0.514919415746803,0.518836473762226,0.460023027077465,0.47254437385315
-230,grasp,12m,FC,0.534667505687761,0.595211838870943,0.451932221542361,0.515803064661038,0.45299377196449,0.5256357695596,0.493705203315494,0.550432850444396,0.463204184967199,0.619886016909088,0.509378373771931,0.523627323585271,0.531186513020601,0.477308734469567,0.518148238001456,0.517711123484777,0.521583815919239,0.456308069412332,0.469696272936641
-220,grasp,12m,FC,0.533924141540509,0.594374057745962,0.457614177405471,0.514031874013121,0.45407760392627,0.530576394963213,0.489264511977469,0.551353313337525,0.461284932103453,0.619268359684703,0.509064303079981,0.526971810033929,0.531062288464174,0.475655995915867,0.517435268476523,0.520599853466995,0.523772939696999,0.45194715227205,0.468256390848256
-210,grasp,12m,FC,0.53300628553766,0.59318954281724,0.46428912342764,0.511784528725958,0.454920710372163,0.535625671569876,0.485609290417487,0.552577943940847,0.459205758353638,0.618474204893754,0.509557145673865,0.529633739213771,0.530541764472046,0.473873497283468,0.517348714183379,0.522780455852323,0.525586116950933,0.447236181704111,0.468507264217696
-200,grasp,12m,FC,0.531906436717173,0.591887861555229,0.47038936635784,0.509433767565195,0.455608407562329,0.541060810288495,0.483662308213034,0.554211456760919,0.456902789953017,0.616801717398489,0.510002378965609,0.53160672663771,0.529842101022246,0.472125784386738,0.517830251807448,0.524172077131788,0.527003853739823,0.442272844428821,0.470216218607414
-190,grasp,12m,FC,0.530772687977971,0.590625736880338,0.475992542027885,0.507087864764683,0.45638544847158,0.546572234885652,0.482745433240178,0.556090343119877,0.454999073396533,0.614875068793275,0.510311934960265,0.53262195055851,0.529098059462881,0.470384119333664,0.518655502594962,0.524849047045035,0.527637730255495,0.437425588348643,0.472901229511527
-180,grasp,12m,FC,0.529413681145185,0.589155414990902,0.481551285249422,0.504947579825257,0.457394987291261,0.551951240168796,0.482336451891697,0.558224591163926,0.453475906588863,0.612997026452219,0.509987355381953,0.533070024366162,0.528064574055885,0.468732750303676,0.519771641488406,0.5252596991347,0.527753676089922,0.4329196348457,0.476372854064167
-170,grasp,12m,FC,0.528046968769773,0.587420810378011,0.487239996275888,0.502938822937967,0.458558655651317,0.557173369231305,0.482598792544843,0.560918701190771,0.452008964868826,0.611122346359169,0.508641266106625,0.532700191096093,0.526782360779677,0.467313818234409,0.52117911687358,0.525712221235918,0.527836439478661,0.428637894640452,0.480718433075238
-160,grasp,12m,FC,0.526545229841535,0.585683109895941,0.492896703918172,0.50090576982523,0.45997989778087,0.562077287731615,0.483439086693205,0.564067157088517,0.451057588359199,0.609228144555976,0.506694502131328,0.531716373880504,0.525556552199092,0.465924542289825,0.522418522861218,0.526321867371382,0.527450731016932,0.424574195715643,0.485493888507351
-150,grasp,12m,FC,0.524542128039897,0.584121449665002,0.498167285359934,0.498960802580869,0.462055208728176,0.566469974321011,0.485428400066547,0.567321415800687,0.450374590571677,0.607291868669276,0.504484978989056,0.530501149653867,0.523940653609103,0.464707839650359,0.523173327075338,0.52738715423694,0.526417417726751,0.4203783365755,0.490206236108702
-140,grasp,12m,FC,0.521905224600232,0.582653211917275,0.502849323022251,0.49713170013627,0.46531091262889,0.570154032326063,0.488735959323616,0.570830265858194,0.44950527563033,0.605384421131641,0.50207145387996,0.529354373576209,0.521305741024703,0.463497738168889,0.523005251013884,0.529120578781442,0.52474644656265,0.416633035755177,0.495253932422699
-130,grasp,12m,FC,0.518746783888451,0.581263867435783,0.507594295648846,0.49538301456786,0.469326399675835,0.573090305045225,0.492729694200101,0.574526854012928,0.448568515447822,0.60393606980966,0.499484367366514,0.527732762686103,0.518053863756506,0.462040754261809,0.52239057036722,0.531524718438372,0.522859191622597,0.413476286098168,0.50060150730548
-120,grasp,12m,FC,0.515287549684142,0.579386406437991,0.512778411738312,0.49390226443721,0.474135629143897,0.575313842518619,0.497081119393398,0.578335518355654,0.447635181529278,0.602901665575,0.496583703122624,0.525565815952139,0.514475866723298,0.460479867561645,0.521830167061116,0.534227475038284,0.520924328488114,0.411019558512355,0.505322039676692
-110,grasp,12m,FC,0.511769636818552,0.57740683952547,0.518603382245965,0.492611479726662,0.479542905280186,0.576844465641451,0.501957030578216,0.582304536046286,0.446752204137488,0.602147157219544,0.493856311346773,0.523128997445996,0.511006679094272,0.458792938990986,0.521047555646744,0.537219337543607,0.51874581500282,0.409162027189749,0.509219349013071
-100,grasp,12m,FC,0.508399733287668,0.575340199926704,0.52461578190472,0.491820593757122,0.484641461836898,0.578412393460005,0.506722836753382,0.586592931743368,0.445902315443123,0.601742544177615,0.492203632467838,0.520295757190124,0.508311988761225,0.457099732847145,0.51994302968134,0.540568887587725,0.516294043010527,0.408303700009541,0.512453624580016
-90,grasp,12m,FC,0.505376002388681,0.573312249798879,0.530088930006162,0.492334538873047,0.489075881312458,0.579729364871996,0.511036924403964,0.590513448531888,0.445102147307908,0.601690909698701,0.491169865238982,0.517214432651405,0.506220259509394,0.455509717541664,0.518451187147914,0.544381193033337,0.51328410644552,0.408332603698188,0.515044251956083
-80,grasp,12m,FC,0.502496593264251,0.571160230703412,0.535105479731779,0.49382371095811,0.492596037670361,0.580560746404814,0.515400001399863,0.593582866587428,0.444256745767791,0.601642265339421,0.489997456989379,0.513869149097984,0.504643560107365,0.453962496684053,0.516376122687569,0.548425120687457,0.509972893224695,0.408744234834344,0.516855269758476
-70,grasp,12m,FC,0.499879331198026,0.56867422360518,0.539285760100022,0.496190222834268,0.495016920957149,0.580861776066875,0.519516172864804,0.595638292049821,0.443890439356932,0.601202917868029,0.488990755910037,0.510282891022567,0.503686383012882,0.452549196998653,0.513562480292623,0.552558221694097,0.506810625657604,0.409207304982399,0.517734742864932
-60,grasp,12m,FC,0.49769594188347,0.566081467856436,0.54302748712004,0.499163791170685,0.496677083806958,0.580521892734736,0.5236935987219,0.596670977495604,0.443862651849533,0.60097738200445,0.488867908067353,0.506345292196296,0.503316722087016,0.451393357367794,0.510407546939216,0.556654875066487,0.5035212274166,0.409570087269031,0.517802945587891
-50,grasp,12m,FC,0.496389589467982,0.563548709131031,0.546051818244874,0.502967401906603,0.497111490445782,0.579602562129316,0.528377550330769,0.596740240538352,0.44399453735644,0.600480010859517,0.489495400948143,0.502573059715508,0.503428181470428,0.45014893894253,0.506872931150804,0.55991611180995,0.500581161793602,0.410244288102224,0.517202143750075
-40,grasp,12m,FC,0.49582408396136,0.560841136142975,0.548348595286793,0.507421209732854,0.497047047017455,0.578044170676023,0.532774406042356,0.59613190953866,0.444350842990883,0.599368799618939,0.490536721629562,0.499306241366991,0.504223561333446,0.448869072196343,0.50355762445115,0.561733262003964,0.498064153245778,0.411741024670293,0.516057286584824
-30,grasp,12m,FC,0.495968824026156,0.557677904906231,0.550004988322023,0.511386807142151,0.496055247827384,0.575736961665733,0.536645095400239,0.594924258672194,0.445174661436722,0.597831088231276,0.491747250187729,0.496533630050395,0.505502236720933,0.447514504245039,0.500414080971967,0.561719509364605,0.495957905452463,0.413634688923387,0.514729412921226
-20,grasp,12m,FC,0.496643381998087,0.554104672428583,0.550732343438492,0.515410092528876,0.494826101306197,0.572648606554329,0.539960281618418,0.593116362643654,0.446332570321013,0.595750918545516,0.493067092017053,0.494089843680974,0.50670217134448,0.446177169349933,0.497434232201578,0.560398118134246,0.494186806672088,0.416099167849349,0.513257120970718
-10,grasp,12m,FC,0.497849441558459,0.550455779624962,0.551191934570642,0.519301036808558,0.493395093592199,0.569137949827751,0.543018704599801,0.590709905103599,0.447677641846406,0.593297146358103,0.494549446444191,0.492067686995908,0.507122996674742,0.445016660708264,0.49482388328775,0.558376792372018,0.492589955084289,0.418979681761672,0.511362968989149
0,grasp,12m,FC,0.499421583090137,0.547099965930662,0.551096217884196,0.522871617167798,0.492009136130972,0.565472343705534,0.54555048390036,0.587871749915583,0.449026984787847,0.590399767189231,0.495916399754245,0.490414471084728,0.506961117098924,0.44394693539018,0.492584849892144,0.556141705699901,0.491077220193786,0.421671402271007,0.509183338631049
10,grasp,12m,FC,0.501246767091753,0.544247627507114,0.550749935870959,0.525859745940997,0.491052938058345,0.561593250751146,0.547672238380325,0.584742027217554,0.450726262389376,0.587467853515026,0.496206387735931,0.489038105806763,0.506374748728866,0.443165997324143,0.491038514776074,0.553757315069491,0.489749402878503,0.424046632716275,0.506757815477162
20,grasp,12m,FC,0.503032579618263,0.541932801684333,0.550050911245286,0.528398481758075,0.490536771361592,0.55799107011306,0.549159000257945,0.581238280183653,0.453010228652783,0.584339382878642,0.496204782473792,0.487910819587793,0.505287438085832,0.442686085890531,0.489910650091159,0.552040652718154,0.488696503345787,0.425900229189602,0.504311915232572
30,grasp,12m,FC,0.504430221070457,0.539990711406649,0.549151248688353,0.531158860002722,0.490501519236797,0.554418566396296,0.550111168679728,0.577221607714646,0.455556800844795,0.581093631819659,0.496238952636056,0.487086091460445,0.503778789271311,0.44221330918017,0.489047624799603,0.551486810958383,0.487907578824814,0.426948406310382,0.501932647515483
40,grasp,12m,FC,0.50570316897558,0.538545387875357,0.547494051847086,0.533332392848125,0.490788480689637,0.550338416877761,0.549020058485574,0.572640481308728,0.457713733075298,0.578010116931402,0.496283853951822,0.486441490574217,0.502554665749936,0.441858672056182,0.488474486774682,0.551440087936334,0.486764579798263,0.427659464171336,0.499513853077074
50,grasp,12m,FC,0.506670708722623,0.53721397939793,0.545512848236388,0.534221791442194,0.491224745860093,0.545857852059089,0.546811948029262,0.567552668792747,0.459718987263619,0.57542658050803,0.496267006829632,0.486208236316939,0.501499719589441,0.441855716258097,0.488135063332142,0.551379662754849,0.484927058754591,0.428428599554658,0.496945377054
60,grasp,12m,FC,0.507333391857775,0.536239336991958,0.543493747547154,0.53403786320942,0.491479031039237,0.541180116783256,0.543779391229229,0.562103216546134,0.461558837236027,0.573470029456229,0.496423684500103,0.48665682684716,0.500434044724449,0.442215562175671,0.488053146886063,0.551692325567706,0.48304893783391,0.429184728535854,0.494486694007889
70,grasp,12m,FC,0.508035086515873,0.535498912843353,0.541375603221277,0.532671507204697,0.491494710620977,0.536249185324619,0.540162042277438,0.556159525679845,0.463045517203952,0.572272277704822,0.496720587744685,0.487428048335575,0.49988196554742,0.443077286420933,0.488378637870017,0.553116680753383,0.48106816044614,0.429602676869468,0.492126527081266
80,grasp,12m,FC,0.508975069562623,0.534939381940385,0.538843436003821,0.530031883681121,0.491111750571736,0.531212891672126,0.535087446751303,0.550198178864631,0.463960664277658,0.571850889114966,0.496982513877603,0.488653337437277,0.499754672114357,0.444081180148831,0.489427431640834,0.555457617305992,0.479053103907469,0.429927574572391,0.490027231308538
90,grasp,12m,FC,0.510165810645778,0.534616461984963,0.536355690870068,0.52688692627007,0.490548794028186,0.526143031687544,0.529413525204913,0.54438140454011,0.46473727307008,0.571763741696869,0.497142962004441,0.490205597285637,0.499396618060978,0.44493957597215,0.491040381096969,0.557304283225916,0.477468371290691,0.42995507669622,0.48742181707305
100,grasp,12m,FC,0.511526810758786,0.53456258671461,0.53405157904273,0.523409494907438,0.490078788014391,0.521657085514261,0.523036522334998,0.538449113408541,0.465659970785888,0.571878289823258,0.497121311938602,0.49216693471888,0.499039421983365,0.446085968599359,0.493105888298943,0.558588233793348,0.475792893578105,0.429617363737114,0.484660686694631
110,grasp,12m,FC,0.513162383472088,0.534763237022441,0.532098312080292,0.519896444102456,0.48957301350952,0.51736486148245,0.515857919800712,0.532932551235142,0.46669057283908,0.572107624419565,0.496846478968732,0.49431453888003,0.4985183978907,0.447038576030052,0.495066799607856,0.559619662415514,0.473847603214444,0.429234840420141,0.481917032079325
120,grasp,12m,FC,0.515585929613882,0.535054354434424,0.530965467824748,0.516592899188719,0.48893783081019,0.513464068106937,0.508124954288022,0.527698600484379,0.467357644464539,0.572200763757934,0.496262619753365,0.496455391004776,0.497717849295485,0.448211239736732,0.497172003811916,0.560477908881836,0.471969156448019,0.429085744501812,0.479474934230279
130,grasp,12m,FC,0.518695807558369,0.535406722458496,0.530115371078935,0.513671612370378,0.488180338478612,0.510008578011454,0.500223823684424,0.522895851023312,0.467869103452453,0.571668248659873,0.494853682765982,0.498401779756187,0.49625339628855,0.449750902376917,0.499124568541593,0.560904447173631,0.469582573896311,0.429445472041606,0.477095326861565
140,grasp,12m,FC,0.522132585701103,0.535702866081235,0.529337531036045,0.511310090389756,0.487163363630744,0.507014389365472,0.492606762328631,0.518599399363071,0.468261029807752,0.570907839706821,0.492593165775085,0.500197973270195,0.494243507650203,0.451701036782501,0.501222799933978,0.560835317358156,0.466856743692734,0.430427141731966,0.474459135242987
150,grasp,12m,FC,0.526157197221443,0.53594992483893,0.528697999146104,0.509936991280045,0.485460200258792,0.504107891218817,0.486011128773377,0.514457150958172,0.468650691762302,0.569909460670087,0.490371462695896,0.501767753744934,0.49228780292769,0.454121010357968,0.503175680734592,0.560318461245315,0.463566496113811,0.432039910546924,0.471616998584376
160,grasp,12m,FC,0.530811115064373,0.536006570887405,0.527863593534724,0.509392796225544,0.4833745017347,0.501505968762955,0.479356339029081,0.509596830483401,0.469299016506305,0.568828867813009,0.487727986283839,0.503206765112131,0.49049900107004,0.457004660309722,0.50465794141943,0.559770158763481,0.459671709561687,0.433991714130066,0.46910302815059
170,grasp,12m,FC,0.53594480817967,0.535939864281868,0.526789689063989,0.509910546515049,0.481773729144379,0.499700739671968,0.472633400841386,0.50448313554838,0.470556496830739,0.567701843392592,0.484694358136566,0.504523152345237,0.488677357018002,0.460155299314146,0.506458397311558,0.558788019029074,0.455925830205303,0.436081602952667,0.466793365015506
180,grasp,12m,FC,0.541231470381998,0.535887876778839,0.525505441034115,0.511098639672979,0.480864283458228,0.498808498339718,0.466157220725028,0.499767577506274,0.47215532722826,0.566107747317757,0.480981748775094,0.505830616753507,0.487013888370539,0.463438818063991,0.508421705074017,0.55754736298561,0.452624690124923,0.438538178555732,0.464988197694256
190,grasp,12m,FC,0.546547964443736,0.535628157828244,0.523953781916211,0.512286489356858,0.480360581662137,0.498201827399748,0.459713851878351,0.495214349800767,0.474085151667354,0.564220576765241,0.476293763865756,0.507081173177727,0.485316519826608,0.466736663388729,0.510247442536841,0.556393155501588,0.449737959756555,0.441247777586609,0.463733387806031
200,grasp,12m,FC,0.551650151661248,0.535101362919732,0.522069111037613,0.513936434975947,0.479843925999159,0.497347698224614,0.452569532642029,0.491088314039755,0.476170142826527,0.562361585935966,0.470889505154966,0.507914912965709,0.483887141101949,0.470172927702803,0.511722210857688,0.554891397221901,0.447277900183968,0.444320289533159,0.46287559064967
210,grasp,12m,FC,0.556449471796053,0.534314717800331,0.519805926192082,0.515841380213427,0.479225894557462,0.496482513023614,0.444807456812895,0.487558449205321,0.477917074643738,0.561046223271641,0.465149942373005,0.508510237029633,0.482341445660998,0.473587561357992,0.512942224520162,0.55296227697908,0.44523645553149,0.447459396278505,0.46225307770628
220,grasp,12m,FC,0.560784632995373,0.532950301763298,0.517399743492521,0.51812937196226,0.478515020614609,0.495861545600529,0.436768293937864,0.484538007053971,0.479347120600744,0.560795125674263,0.459281849634719,0.508601983060403,0.481034117507497,0.477287327104102,0.513784633545045,0.550836844114007,0.443379688213795,0.450418664347138,0.46202825286656
230,grasp,12m,FC,0.564767414257867,0.531183990266601,0.515418873767272,0.520993887618778,0.477780505075895,0.49507100106946,0.428492270830689,0.481846488269839,0.480679068030286,0.561104804654637,0.453040894541566,0.508520002922896,0.480215330521042,0.481148705882362,0.514411932434142,0.548159364756058,0.441000809940361,0.453222001057668,0.462483726775237
240,grasp,12m,FC,0.568281047907824,0.529028702787112,0.514264883605882,0.524077576524244,0.476963563313511,0.494241097378751,0.41996759376663,0.479586476664271,0.482170896025861,0.562008153852352,0.44652926547706,0.508205953196406,0.479488284527066,0.484644514551578,0.514680089166368,0.545638479057642,0.438663861073147,0.455708351205792,0.463869084350618
250,grasp,12m,FC,0.571267765851637,0.526825891865709,0.513175319023327,0.527357125721523,0.476101185054325,0.493295873428034,0.411269157463273,0.477845123137365,0.483868698157474,0.563091682856712,0.440114815577778,0.507760120381392,0.478855575333015,0.488027389795925,0.514869317534553,0.543701152961137,0.436354398115465,0.457562684330969,0.466191155462715
260,grasp,12m,FC,0.573985957884258,0.524562070707517,0.512232385998813,0.530786820841015,0.475552017730781,0.492120442540154,0.40333426998463,0.47681499896634,0.485827273856662,0.564064485975029,0.434023728156047,0.507153763180044,0.478016677354491,0.491456080159858,0.515131510282852,0.54189574227156,0.433864675405603,0.459886004019328,0.468396523213397
270,grasp,12m,FC,0.576373827607245,0.522483366817139,0.51122935438717,0.5336325565811,0.475281397805195,0.490437579213959,0.396252876875166,0.476360138009314,0.488015591847152,0.564746066172031,0.428347784444161,0.506207553910546,0.477246070689732,0.494609578732486,0.515671257530414,0.540028000176369,0.430982859623492,0.462136161220113,0.470225239169247
280,grasp,12m,FC,0.578076909433567,0.521001661645788,0.510281282755362,0.535828256867248,0.475313638537468,0.488705883486844,0.389441392964385,0.476417193976353,0.489852278820655,0.5652821529014,0.422963105325666,0.504888836118201,0.476941845701451,0.497372036758167,0.516503345487948,0.538327368811125,0.427404339219605,0.464408538286227,0.471915368837666
290,grasp,12m,FC,0.579243815859235,0.520165345859193,0.508885854039602,0.537512730067854,0.475282361194022,0.486814591888529,0.384954389962191,0.476940958487527,0.491306405026059,0.565343247560197,0.417874794190673,0.503318757062943,0.476901661005055,0.499568345301705,0.517403039578441,0.536079863760135,0.423128333180611,0.46632517566555,0.473303134027219
300,grasp,12m,FC,0.57986483803804,0.519562394629649,0.506953267592647,0.538769650520221,0.475125530827056,0.484492851068985,0.38311629643227,0.477586928363458,0.492680827993641,0.564872267047992,0.413699013395778,0.501337821761097,0.476937096033067,0.501048368626274,0.518410764047826,0.533761225393669,0.418523874153798,0.467560071709832,0.474460320847217
310,grasp,12m,FC,0.580045664345575,0.519081219762375,0.505206715738563,0.539826600992068,0.474629744392837,0.482395240709921,0.383232455826754,0.478137644443769,0.493986430539101,0.564222862596861,0.409743251505422,0.499137391495489,0.476761792944088,0.501995189089168,0.519742311065149,0.532235528931394,0.413434057257716,0.468146388818667,0.475217924021915
320,grasp,12m,FC,0.579978235486857,0.51847571909042,0.504075009498887,0.54027775542229,0.473633619579633,0.480767564392504,0.384223026275658,0.478791326647375,0.495252422810063,0.56347806440468,0.405803188725767,0.496680896273284,0.476533333190411,0.502576647293139,0.520742650162697,0.531645551551083,0.408122939289088,0.468143767396097,0.475485086484648
