Time,Condition,Age,ChannelPair,connect_overtime_LA_EEG_12_P04_CTS_MTH_chanpair_12m.mat,connect_overtime_LA_EEG_12_P05_CTS_MTH_chanpair_12m.mat,connect_overtime_LA_EEG_12_P06_CTS_MTH_chanpair_12m.mat,connect_overtime_LA_EEG_12_P07_CTS_MTH_chanpair_12m.mat,connect_overtime_LA_EEG_12_P08_CTS_MTH_chanpair_12m.mat,connect_overtime_LA_EEG_12_P10_CTS_MTH_chanpair_12m.mat,connect_overtime_LA_EEG_12_P11_CTS_MTH_chanpair_12m.mat,connect_overtime_LA_EEG_12_P16_CTS_MTH_chanpair_12m.mat,connect_overtime_LA_EEG_12_P17_CTS_MTH_chanpair_12m.mat,connect_overtime_LA_EEG_12_P19_CTS_MTH_chanpair_12m.mat,connect_overtime_LA_EEG_12_P20_CTS_MTH_chanpair_12m.mat,connect_overtime_LA_EEG_12_P21_CTS_MTH_chanpair_12m.mat,connect_overtime_LA_EEG_12_P22_CTS_MTH_chanpair_12m.mat,connect_overtime_LA_EEG_12_P23_CTS_MTH_chanpair_12m.mat,connect_overtime_LA_EEG_12_P24_CTS_MTH_chanpair_12m.mat,connect_overtime_LA_EEG_12_P25_CTS_MTH_chanpair_12m.mat,connect_overtime_LA_EEG_12_P26_CTS_MTH_chanpair_12m.mat,connect_overtime_LA_EEG_12_P27_CTS_MTH_chanpair_12m.mat,connect_overtime_LA_EEG_12_P28_CTS_MTH_chanpair_12m.mat
-1000,cane,12m,FO,0.500540665865631,0.487508514015215,0.504171597735521,0.404184201910685,0.454887015163371,0.457235955987372,0.530252077853605,0.464405226594153,0.489692622491655,0.469168024717228,0.570706818654722,0.503688635419535,0.523013498230965,0.530937720368532,0.417629044545458,0.469053951833615,0.503165278717701,0.441119289149966,0.541315944893648
-990,cane,12m,FO,0.499900711116434,0.486341502454609,0.501609564904881,0.399442047777866,0.461889416642516,0.455510367719969,0.53758109655567,0.461943621469573,0.492247550975039,0.468771715369494,0.568960555627436,0.503640224692295,0.518163625751103,0.529173617542466,0.41649762705826,0.470991988725283,0.502151602079113,0.437576619072494,0.541699954244289
-980,cane,12m,FO,0.49902275286047,0.485886885602419,0.500145848407717,0.394321943526244,0.468908144809984,0.45374987033254,0.545286662845426,0.459728807166622,0.494358146164628,0.468654164602647,0.566322521979873,0.503201210201778,0.513836168474468,0.5269445368379,0.415842082294629,0.472711813424871,0.501201206399659,0.434129963199773,0.541904833580109
-970,cane,12m,FO,0.497586470923763,0.486362670539982,0.499328621767234,0.389288133426815,0.475672506898615,0.451819598262842,0.553078626886048,0.457861021848531,0.495894432676534,0.468728131343766,0.562984928640498,0.502621191099798,0.509734082902273,0.524085893529929,0.41535121337718,0.474356818171755,0.49965080922647,0.431475510597593,0.542238829763222
-960,cane,12m,FO,0.495655268201259,0.488361671181737,0.498833571241467,0.384848936783239,0.482108491620652,0.449762952498247,0.561616977452187,0.456153577025819,0.496863339546562,0.469106892984264,0.558451563523385,0.502080727761561,0.505655940776795,0.520875715398229,0.415147258373883,0.475920980988283,0.497809854052296,0.429069806370774,0.542761391951217
-950,cane,12m,FO,0.493435183794546,0.49110569933676,0.498633952997717,0.380261784925158,0.487946579529051,0.447698185788431,0.571467744067623,0.454729516716379,0.497006088871807,0.46973323664898,0.55347411456291,0.501585506700398,0.50137925222269,0.517282590406318,0.415440594916734,0.477188494169939,0.495668924863395,0.426704408965877,0.543366895290557
-940,cane,12m,FO,0.490662903076556,0.494487868889295,0.498805985917598,0.375760320526487,0.493547010506752,0.445476858371228,0.581965031849529,0.453932242205893,0.496818901250594,0.470366836880124,0.548195914410285,0.501422727027215,0.497457091630515,0.513296096950022,0.415953452592563,0.478043685657021,0.492856599701677,0.424529711419972,0.543944424137443
-930,cane,12m,FO,0.487456147344006,0.498523637172963,0.499571617735217,0.37245968288129,0.498795126351736,0.442614213092784,0.592800981256265,0.453665252981072,0.496503242528249,0.471025474943158,0.542765542407039,0.501852457834399,0.494357465455782,0.508826614140677,0.417054046357827,0.478170562466976,0.490126612022881,0.422649573955369,0.544495630902187
-920,cane,12m,FO,0.484261869570426,0.50326165302021,0.500636143400591,0.36981386714346,0.503248819784556,0.439518374881059,0.604749495658899,0.453523863783328,0.495871606992432,0.471957589320527,0.536925772163798,0.502518979109055,0.491238799927278,0.504218134612607,0.418524833356475,0.47719808260744,0.488447276014284,0.421486848452987,0.545078472125329
-910,cane,12m,FO,0.480847131520516,0.508407550985259,0.502127353316203,0.367910973713816,0.506840677621664,0.436377368619823,0.617047153170053,0.453363721100439,0.494569884267858,0.473427481194765,0.531334076603796,0.503436084016847,0.488241806069967,0.499784537297075,0.42072547597631,0.474473762607506,0.487455324147197,0.421168104932175,0.544726920388873
-900,cane,12m,FO,0.477371347942336,0.513719736776585,0.504194325569576,0.366768479045422,0.509868791952532,0.433284627242095,0.629382940068284,0.452969128636252,0.493086042729753,0.475607284339516,0.526363818243974,0.504578717160386,0.485657971158402,0.495993240217398,0.423671272496302,0.470690885972004,0.486560920915858,0.421374809103032,0.54323450253706
-890,cane,12m,FO,0.474090021892987,0.519373217687229,0.506802238732904,0.365649337953961,0.512736087145876,0.430447372127297,0.641798412061365,0.452472653952181,0.491357294509514,0.477765451333888,0.52200041601733,0.50561157125329,0.483564663648365,0.493226485598846,0.426971537580393,0.465587242888618,0.485610965994591,0.422738220999784,0.540852117807158
-880,cane,12m,FO,0.471053969328315,0.524692918488994,0.510158159679526,0.363952558468916,0.515124043027764,0.427989211019746,0.654226718674823,0.451487404682424,0.488935635374845,0.479504010695296,0.51795019002741,0.506435427554018,0.481626428343895,0.490787800087055,0.430784631928292,0.460184830816775,0.484442232655074,0.424853581482102,0.537691564222558
-870,cane,12m,FO,0.468297312186362,0.529240243799099,0.513703086614801,0.362957988925164,0.516870747351015,0.426012583346721,0.666496066081661,0.450172477531981,0.486029625640871,0.480518224083566,0.513937542633282,0.507051772807827,0.480143139509878,0.488874580677298,0.434864336021076,0.454739609048792,0.483429587067061,0.427518680043217,0.534194807469032
-860,cane,12m,FO,0.46574513952826,0.533088103221744,0.517152322658064,0.362866024895947,0.518059109840358,0.424299425093538,0.678180412323882,0.448929484340242,0.482889108529103,0.4808672927431,0.509583700161343,0.507403064864153,0.479537247935028,0.487263917822498,0.438207410049778,0.448794547247177,0.482678091825983,0.430492976428978,0.530445708590698
-850,cane,12m,FO,0.463372563257778,0.536379971497824,0.520957660979674,0.363567451681966,0.519075057084695,0.42334971681182,0.689430905046078,0.447592049770577,0.479635513823314,0.480605394672519,0.504565918301402,0.507353160455613,0.479377970789157,0.485587550959992,0.441110239778502,0.442684846011193,0.482600870763646,0.433869447576577,0.526197831996783
-840,cane,12m,FO,0.461121335121273,0.539127328609943,0.523879938778094,0.364767321803373,0.520004249028515,0.423543888801889,0.700097773138339,0.44641544749548,0.47578758777238,0.479360905248329,0.498821475442716,0.506800084288686,0.479382207158301,0.483838119803302,0.444369633611498,0.436124981439136,0.482922303062015,0.437079446110307,0.521560730610336
-830,cane,12m,FO,0.459277712420869,0.541021763927943,0.526738705687246,0.365974341410345,0.520739057581733,0.425111905213753,0.709471742947665,0.445357209506249,0.47194480823048,0.476917747084468,0.492530828550312,0.506224551308432,0.479359761958028,0.482192931825964,0.447999125633358,0.428845506713766,0.4836413203956,0.440152489208188,0.516351746195121
-820,cane,12m,FO,0.458041469857534,0.54201494262045,0.530191968081398,0.367006800452663,0.521512940387562,0.428222894562184,0.717125720860926,0.444440166919747,0.468643129672041,0.473844421530215,0.485937147121107,0.505620073400439,0.478826650157165,0.480977054517005,0.451612909156613,0.420816657362861,0.484504746417869,0.443228102048649,0.511071829833906
-810,cane,12m,FO,0.457557634069156,0.542273749098161,0.534209856630885,0.368478949093694,0.522248879625428,0.432176242113752,0.723464439974406,0.44427100107531,0.465951528945356,0.470980567469366,0.478765368687054,0.504943901709311,0.477731758071411,0.480143740105825,0.455010981932346,0.412820785595428,0.485210200780779,0.446201921113294,0.505608277815688
-800,cane,12m,FO,0.457921375931097,0.541769115184563,0.538883679569425,0.370005465575651,0.522582228273077,0.436838464529711,0.728709817490693,0.444774798097577,0.464073679075976,0.46836576342506,0.471272087349384,0.504247170423081,0.476360999354136,0.479428402658311,0.458253681238558,0.405890741563724,0.485392341087166,0.448805270795333,0.500797070421743
-790,cane,12m,FO,0.4592186368047,0.540447335340005,0.544032049912172,0.373219264738302,0.522282694126791,0.442044960058332,0.733690342766034,0.446153391226805,0.463168436277473,0.466145550069764,0.463752259523296,0.503617666732578,0.475080294520425,0.479119641534917,0.461588244336541,0.399642272372029,0.48439454107734,0.450549934240067,0.496513012702805
-780,cane,12m,FO,0.46148205269779,0.537980687593806,0.548964359134998,0.377726612126626,0.521956196020042,0.44611219118567,0.739025612404609,0.448528162422382,0.462760141624762,0.464569514003734,0.456529304707128,0.503304945066828,0.473961749808405,0.479089449352246,0.46453005553271,0.394095888500032,0.482842272031335,0.451767332434555,0.492839457971535
-770,cane,12m,FO,0.464207030163595,0.534276875936902,0.55355412352747,0.382430771722108,0.522036836187219,0.449540106274012,0.744772526967639,0.451439344575729,0.46267548185794,0.463565687902536,0.450009687633759,0.503432684376547,0.473137869579208,0.479014210423925,0.467165612546779,0.389585762163378,0.480261143702229,0.452717285135055,0.489502941490396
-760,cane,12m,FO,0.467198625833498,0.529212505450414,0.557851858889436,0.387062167919921,0.522760134727892,0.452710069104883,0.750289765383385,0.454773729984634,0.462505966867411,0.463414531345157,0.444258684298808,0.5040894041567,0.472749328097203,0.479003383180107,0.46978756599227,0.386464279264883,0.47681318276858,0.453547065504782,0.486472130077117
-750,cane,12m,FO,0.470436737875523,0.523333317019373,0.561414115450274,0.391267019312962,0.523728348776048,0.455875462241084,0.755872586513933,0.458603791159781,0.462564040503974,0.463998275289441,0.439326634545495,0.505270524538639,0.472502201423492,0.479177300128984,0.472438828004563,0.385069973990668,0.473376945441534,0.454138866818814,0.4837635500232
-740,cane,12m,FO,0.473829986957188,0.51680021267135,0.563771519665507,0.395351635239182,0.52471547723538,0.459108214848466,0.761678690906091,0.46272561064937,0.462255449992785,0.465224463865808,0.435222285434047,0.506570729070137,0.472354316982331,0.479174807800693,0.474642730697511,0.385501363081083,0.470118762918636,0.45496631555678,0.481977673438236
-730,cane,12m,FO,0.477179678913242,0.510043652984586,0.564794113891625,0.39951148038625,0.52558461219038,0.462160109534105,0.767518399734566,0.466845929299113,0.462297670212855,0.467022150309512,0.431937388104721,0.508013418265008,0.472593247062165,0.479115327648741,0.476398116649783,0.386305886590506,0.467052804393215,0.455769268296181,0.481274588051255
-720,cane,12m,FO,0.480361916112326,0.503440624168738,0.564491690703277,0.403857829744018,0.526252084231115,0.464712564997505,0.772834067128194,0.470442602057938,0.461486066841333,0.469381916129806,0.429156251177832,0.509699675261564,0.473463220977403,0.47971373571337,0.477981012819684,0.387326439717842,0.464398444602424,0.456296388226218,0.48126355816869
-710,cane,12m,FO,0.483332323285573,0.497138421560621,0.562653194298416,0.408392860961277,0.526847779409419,0.467173010227929,0.77755268151667,0.473536753334925,0.460664257931224,0.472176891357296,0.426799191393491,0.511655751294275,0.474713475697565,0.480586907304549,0.479634731253327,0.388469556355953,0.462464245338582,0.456293795579033,0.481694370859091
-700,cane,12m,FO,0.486076200592272,0.491173066033081,0.559380129807161,0.413055522819418,0.52728619198772,0.469226510100953,0.782176588867715,0.476269617214651,0.459879543950501,0.475187627748397,0.424268331338826,0.513914178184539,0.476362645485587,0.481530546867578,0.480973637783933,0.390115991453695,0.461688958622298,0.455460056080086,0.482337506447671
-690,cane,12m,FO,0.488704414662178,0.485727544731218,0.555047057885112,0.41803938124781,0.527770951875147,0.470632183282954,0.786185036136571,0.478200785143765,0.459006572510175,0.478585838553584,0.421734138779508,0.516548565504276,0.477942703538508,0.482666155795344,0.482211197525126,0.392594157958036,0.462155272250399,0.454248425286875,0.483001642148172
-680,cane,12m,FO,0.491440279325589,0.480540530418755,0.549995362755628,0.423070797659505,0.52754327901638,0.471395886929314,0.789166929976182,0.479520510009481,0.457761258412697,0.482352403830084,0.419089750886364,0.519499607494778,0.479044790986157,0.484027539740996,0.482957804129322,0.395947716654217,0.463846479780191,0.452853395991619,0.483608475293057
-670,cane,12m,FO,0.494371160112122,0.47553021781069,0.544102748836875,0.428070508324801,0.526442077386446,0.471808140178679,0.79050982431225,0.480029601567174,0.456079635391726,0.486300518346268,0.41629064016984,0.522334568311042,0.479687425458865,0.485123413648066,0.48312991943488,0.398395867307991,0.4667826707884,0.451587349898908,0.484563631629521
-660,cane,12m,FO,0.497313572278386,0.470883311278046,0.537513671225313,0.433474071551749,0.524658937867179,0.471936415536612,0.790128218301527,0.480164516760539,0.454937652933337,0.490394409161212,0.4138810911767,0.524977297406111,0.479774712119647,0.486180953770292,0.483233138673563,0.400047054934857,0.470925447742429,0.450495076681652,0.485814156178717
-650,cane,12m,FO,0.500191845770098,0.466799715748866,0.531461610460704,0.439120900824929,0.522963331868865,0.471944536540182,0.788220828910885,0.479679741143326,0.454141889838087,0.494177411249218,0.412041933532493,0.527402446092567,0.479975642464323,0.487514155639001,0.48316857927925,0.400734476848537,0.475846650886663,0.449784654885947,0.487210053086775
-640,cane,12m,FO,0.503112389861993,0.463627312601488,0.526841750546672,0.444668887063964,0.522001286117465,0.471910109883761,0.785128267851667,0.478705669990236,0.454059467957594,0.49803967733238,0.410670039682113,0.529582140238176,0.480775560059707,0.489104728563901,0.483389217660674,0.400610975730069,0.480981902184448,0.449723501056559,0.488383926227323
-630,cane,12m,FO,0.505875079524245,0.461530980742641,0.523467556332308,0.449722035777341,0.521282848428279,0.471931561565137,0.781099700394786,0.477351998968506,0.454481306643129,0.501709881378631,0.41031796120964,0.531636896479202,0.481819654693553,0.491021267081805,0.483841731643577,0.39994565652936,0.486403915372057,0.450121683494326,0.48930272209309
-620,cane,12m,FO,0.508676636281718,0.46039127216421,0.52101461249792,0.45458479907828,0.520874656937384,0.471914262905423,0.775387903177305,0.475536879384098,0.45509410183363,0.505005433866423,0.410968641208762,0.533703552616057,0.483074832569415,0.49305933862686,0.483985552336049,0.399120908350086,0.491703278679841,0.450697087589547,0.49046442714261
-610,cane,12m,FO,0.511407925809529,0.460078542770348,0.5181091586622,0.459262170645982,0.520976093666961,0.471585525598857,0.768827034691214,0.473590453605981,0.455995902365279,0.508216009760183,0.41271460058759,0.535330353649902,0.484320769557299,0.495087036195615,0.483979329024544,0.398008829009636,0.496635662625519,0.451519725298826,0.491522802735228
-600,cane,12m,FO,0.513849336320102,0.460753069798965,0.514664149011462,0.463515501004214,0.521566716161626,0.470662243327929,0.761441582760023,0.471769631771602,0.457190550320351,0.511039723954619,0.415688809595608,0.53696948461216,0.485362193048411,0.497097038443563,0.484093699786752,0.396236879094128,0.500742054578214,0.452708634194487,0.492300974074728
-590,cane,12m,FO,0.516119468670448,0.462555467399253,0.511271585587525,0.467464665607173,0.522450567793596,0.469158733865628,0.753165620395596,0.47016333813037,0.458408850360301,0.513371561494544,0.419750769483571,0.538459558485794,0.485541298655331,0.49898896242057,0.484649676439871,0.394386090522673,0.503706428638314,0.454400851607992,0.492850957611111
-580,cane,12m,FO,0.518041402025928,0.465105066101769,0.508460646469026,0.470295166309373,0.523307025295557,0.467064439367975,0.744077345615001,0.468886541710245,0.458802846390296,0.514999897174796,0.424878505629382,0.53980326764339,0.485274421940832,0.500545865164232,0.485737531535518,0.39246135144831,0.505274897173948,0.456348623945796,0.49311755737509
-570,cane,12m,FO,0.519088621820131,0.468149794516466,0.505645805366773,0.472414714124748,0.523941274107535,0.464553512205011,0.734321272287986,0.468208778868797,0.458601787559666,0.515987657106068,0.430474059297715,0.54083427873571,0.484854625630178,0.501616747961444,0.487316259015901,0.390961443630985,0.50567101734291,0.458095161078875,0.493897685026882
-560,cane,12m,FO,0.519386522975435,0.472358950101411,0.502314982097638,0.473878595192925,0.524450500048152,0.46198013666202,0.724030744756907,0.467918734204739,0.458488751494317,0.516464147513355,0.435890545108445,0.541436668143956,0.484477189080237,0.502479502794224,0.489175085257102,0.389790605054055,0.505156914245415,0.459734434240749,0.495263202743012
-550,cane,12m,FO,0.518983030320779,0.477110722041623,0.497935922909325,0.475157309583316,0.524921284216137,0.459810907282839,0.713383555981355,0.468028898989331,0.458260535763365,0.516537370258739,0.441060334152802,0.541707510661011,0.484148088904736,0.503288849086491,0.490190602022334,0.388694064292915,0.503964602667392,0.461226010090854,0.496763341855146
-540,cane,12m,FO,0.518025632586493,0.482037134498247,0.492346373155563,0.476675789969904,0.525219385772823,0.457724933137188,0.702678956594175,0.468566610819443,0.457776527135203,0.51610636089806,0.445755285392762,0.541789530075926,0.484024501959346,0.503977394919559,0.49087762926385,0.387391182899685,0.502019863182608,0.462430191950275,0.49831550921776
-530,cane,12m,FO,0.516218682831193,0.486727591678461,0.485738566540114,0.478596864342298,0.525218232831662,0.455787709433516,0.691565640138969,0.469461948580971,0.457044469179141,0.515235711343385,0.450296447587815,0.541627508718044,0.483981823157587,0.504660706987464,0.491372848335778,0.38766799257554,0.499825623652066,0.463650132011592,0.50011588748821
-520,cane,12m,FO,0.513580754988251,0.491066408601881,0.478820894901911,0.480864331060876,0.524966381689083,0.45440097871754,0.679665564277996,0.470681140006686,0.456343278878087,0.513716874353454,0.4543613949966,0.541448270736993,0.484006973763794,0.505473425769712,0.492196313395126,0.389787625916775,0.497815504811384,0.464950572903678,0.502129622301244
-510,cane,12m,FO,0.510523394724546,0.495135089681696,0.471619057724347,0.483522964534117,0.524974725988696,0.453579228913154,0.667108304552371,0.472012463719197,0.455985584231726,0.51180158808389,0.45884694429287,0.541328583476251,0.484129294506612,0.505930997062946,0.493210677479373,0.393223477936201,0.495957624267953,0.466251922699052,0.503901625888562
-500,cane,12m,FO,0.507357513794985,0.498640224527157,0.464035494400212,0.486542878508442,0.525204554617868,0.453343285765674,0.654019078576158,0.473405174838612,0.456324341621887,0.509779280798503,0.463547409228095,0.54099877101589,0.484287875818341,0.505972511154033,0.494183613525975,0.398386046743593,0.494133303013383,0.467644927139356,0.505892691471802
-490,cane,12m,FO,0.504217959879179,0.501123544393535,0.457128041917087,0.489450694287281,0.525413067246318,0.45356214400688,0.640631852757037,0.47487606326299,0.457442804085534,0.507720396430663,0.468276262183648,0.540289497015599,0.484303991579526,0.505681978519401,0.495342141204765,0.406187567841505,0.492671431814192,0.46895695822708,0.508402574951176
-480,cane,12m,FO,0.501064567059992,0.502966648497379,0.450423909074578,0.492134756120545,0.525646768043804,0.453886189906715,0.62715117565173,0.476288589126682,0.45872351661582,0.505903266842794,0.472476945463922,0.539216905748131,0.484169855364525,0.505199364152672,0.496642507601356,0.415019504090767,0.492039567464751,0.469933340316193,0.511390400444694
-470,cane,12m,FO,0.497989058812573,0.504535683051196,0.444124713125753,0.494518954717036,0.52572537229702,0.45445950088146,0.61367274289535,0.477720480389424,0.459692885822887,0.503762325808784,0.476469535074815,0.537662467843119,0.483877716568165,0.504892111878561,0.498301111794524,0.424350442005785,0.49209178719916,0.470174634508054,0.514531829753553
-460,cane,12m,FO,0.495252271698315,0.505985372481175,0.438350755227367,0.496573765291299,0.525316444071972,0.455051613371824,0.600236747165465,0.47871348170025,0.460618086504504,0.501152007966384,0.480928098088553,0.535686500807079,0.48353777141294,0.504754869019368,0.500006314876181,0.433640211521447,0.492555539912335,0.469429473455764,0.517091133932181
-450,cane,12m,FO,0.492943369945348,0.507039916956038,0.432986690756444,0.498131685077938,0.524360505134347,0.455644523594841,0.586841955499524,0.479463909178211,0.461851946832121,0.498492690890215,0.485028232985554,0.533229669946625,0.483616081544211,0.504987735314738,0.501565692682453,0.442653349307933,0.493606655064338,0.468155138761903,0.519154149277775
-440,cane,12m,FO,0.491440220425363,0.507533274019898,0.427892490495286,0.498856196544091,0.523067644757046,0.457020378553126,0.573542138071595,0.480443388003246,0.46325952772543,0.496006750684122,0.488377576188953,0.529983474101833,0.484011235896211,0.50570135724588,0.502998481510358,0.451322423580188,0.495624224542972,0.466789928805733,0.520796526432613
-430,cane,12m,FO,0.490998106101004,0.507556235206362,0.423032573664085,0.498979469521722,0.521291322293435,0.458669975942669,0.560461847187435,0.481677371134301,0.464183719332949,0.493791004886529,0.490642576253689,0.526475408120045,0.484540684633372,0.506677974024454,0.504257018307272,0.459178626398144,0.498211014227577,0.465897322343358,0.522081110129873
-420,cane,12m,FO,0.491174028290875,0.507232984891387,0.419020792759303,0.497809332621283,0.519224635003144,0.460839024202199,0.547747229865982,0.482982290981913,0.464747969142514,0.491892667061766,0.491580366870113,0.52251763965957,0.48510155841294,0.508096994553954,0.505337606082902,0.465686210478725,0.499882298821227,0.46554675816888,0.523029145244891
-410,cane,12m,FO,0.491817662179246,0.506310905149094,0.415495831023501,0.496080397273787,0.516451811910641,0.463452283080426,0.535095215890401,0.484303288816478,0.464882413200097,0.490207793615311,0.491431921963067,0.518603747332265,0.484979502916466,0.509850840420921,0.506021228316742,0.470991626390559,0.501251467238723,0.465445883539869,0.523513927202349
-400,cane,12m,FO,0.493018404005437,0.504659467974452,0.412734689407259,0.494360025401756,0.513319571910006,0.466165370908125,0.522643093507272,0.485288016754702,0.464686435077238,0.488604447775768,0.49040684511256,0.514953141674927,0.48420748157894,0.511463098592492,0.506280530990207,0.474817853069206,0.502394339460564,0.465530906952543,0.523601040551714
-390,cane,12m,FO,0.494831663818433,0.501995771077017,0.410657979654294,0.493133653953775,0.509729108135987,0.468691597868013,0.511392373605971,0.485858372347107,0.463883123193984,0.487363641128349,0.488187770190537,0.511584402921718,0.482841050448696,0.51286033907437,0.506809715882036,0.478049902699632,0.503052940564902,0.46597068310768,0.523482138111154
-380,cane,12m,FO,0.497018542662769,0.498995340395634,0.409053790955231,0.492047435836721,0.506117558455463,0.4708675187648,0.500631450818312,0.486166446935631,0.46249215360923,0.486462155857151,0.485495108576168,0.508649893877704,0.481019111964845,0.514206928934295,0.507313980205283,0.480630853644298,0.502348988100353,0.466801824840923,0.522777702221246
-370,cane,12m,FO,0.499497956020409,0.496088940519994,0.407395129694074,0.490845088491206,0.502832662274392,0.472200240343173,0.49120417690792,0.486336067257085,0.460984651623005,0.486084089583236,0.482991951244567,0.506311404879475,0.478447461166558,0.515247600634931,0.50809274667293,0.482433268607114,0.501187540026405,0.467975415534998,0.521379561160252
-360,cane,12m,FO,0.502238699125696,0.49356615404027,0.405530494667254,0.489361907156407,0.4995697929367,0.472572595172207,0.483212966136141,0.486366575775891,0.459549984038047,0.486157557944955,0.480825574570066,0.504634440417923,0.475604700523349,0.515536286486199,0.509526231630171,0.483383273887053,0.499702298950363,0.469125321004804,0.519806401989164
-350,cane,12m,FO,0.505076226388989,0.491697392200406,0.4037726293139,0.487355198398448,0.496303399794198,0.472634482021554,0.476783017566824,0.486589806176004,0.458072231373844,0.486591289167855,0.478977809679426,0.503293845599505,0.473229645118445,0.515111912358523,0.511329919856964,0.483522253932703,0.498057577783733,0.470768218370881,0.517950844866506
-340,cane,12m,FO,0.507529199742876,0.490575953660983,0.402370685454818,0.484709543729719,0.493518781425402,0.472412714538748,0.471968280177027,0.486899138791235,0.456713886373562,0.487496593050488,0.477723111937513,0.502040927267385,0.470695446269049,0.514181372513537,0.513033064924016,0.482712050718807,0.496641164989954,0.472889016644896,0.515636164576683
-330,cane,12m,FO,0.509859229777491,0.489878477925318,0.40145373120378,0.48146904829092,0.490957970477601,0.471938698220195,0.468695862912568,0.487200369619264,0.455598869355122,0.488851568131965,0.477206691952177,0.501043618609086,0.468218164779348,0.51295481093303,0.514338114441728,0.480763352973465,0.495482603493087,0.47544370649787,0.513350029814328
-320,cane,12m,FO,0.512061529337256,0.490026300555658,0.401003215335055,0.477458380318952,0.487984484790098,0.471420391251778,0.466923523745503,0.487164494955558,0.454534347158892,0.49042638576454,0.477432813484192,0.500053923508333,0.46568993428826,0.51132257469848,0.515228625231174,0.477596147276853,0.494630939325466,0.478197959879737,0.510854927703182
-310,cane,12m,FO,0.513968395729855,0.490764778264033,0.400789838595294,0.472457057935441,0.484826594874621,0.470966515857011,0.466129382787362,0.486578929899331,0.453334652990048,0.492443196082504,0.478311686000542,0.499112372997835,0.463278259453562,0.509172365288541,0.515501404154996,0.474118144185149,0.493991864369414,0.480971129719849,0.508039685568022
-300,cane,12m,FO,0.515523610426754,0.491975705843864,0.400672159639104,0.466721117721036,0.48151001048075,0.470711719496726,0.465928268288406,0.485671154764643,0.451968848864323,0.494657456962499,0.479812197328351,0.498345331517547,0.461188899116557,0.506784606183182,0.515077002830122,0.470459121915069,0.493637885067589,0.483614975046678,0.504173126840882
-290,cane,12m,FO,0.517314622937699,0.493853174469806,0.400871923856596,0.460094989118018,0.478080730611552,0.470678649814514,0.466191221470197,0.484635123122257,0.450457995831828,0.49705706770011,0.481822330218613,0.497963449779083,0.459451314293458,0.504208925251938,0.514339814035006,0.466889346172776,0.493344415545124,0.486459029001288,0.499692176784446
-280,cane,12m,FO,0.518732624237648,0.496119937116642,0.401408048992446,0.452865983768001,0.474548181010582,0.47059541304792,0.466161494840559,0.483519974322058,0.448976502831186,0.499885808955769,0.484186861047231,0.497895770424493,0.458043361705007,0.501746843928349,0.51311986280547,0.462890542289317,0.492992747126265,0.48966907994461,0.495269371352423
-270,cane,12m,FO,0.519592279145686,0.498324603054377,0.402046446861971,0.444419730009938,0.471218743429674,0.470906185827686,0.46511165944787,0.482412538405421,0.446652362950753,0.503082222234005,0.486801839960291,0.498388419246033,0.457036240345524,0.499163375092501,0.511175205621879,0.45761348232502,0.492953923125754,0.493160786754506,0.490836076812438
-260,cane,12m,FO,0.520205955418964,0.500318538402379,0.403825985899622,0.435881690518323,0.468299585582211,0.471930687920465,0.463766571857011,0.481779296877744,0.444112935984423,0.506546333606322,0.489672165925295,0.499417935987459,0.457044936804652,0.496494299389679,0.508602188707371,0.451636191931353,0.494043895484322,0.496694223715618,0.486408121600452
-250,cane,12m,FO,0.520777673406292,0.502057317356825,0.407221543101447,0.427411554107413,0.4660155822913,0.473790154479036,0.46181103597455,0.481356409449205,0.441472319210296,0.509980965901808,0.492889724818648,0.501015744333298,0.45784965383577,0.493929774530715,0.505725429552552,0.445425890748595,0.496021441593259,0.499765008209572,0.482493335957552
-240,cane,12m,FO,0.521684724145058,0.503556662610639,0.411668300722855,0.418909752380166,0.463999002341767,0.476073208321464,0.459447396395758,0.480853004571274,0.439323277723865,0.513179969272407,0.496044855244054,0.503148498947238,0.459441412978207,0.491774588281329,0.502245114861922,0.439050154797281,0.498340807920148,0.502216056283214,0.479193811226313
-230,cane,12m,FO,0.523016014505375,0.504833940996154,0.416795930284266,0.410472015827487,0.462413214240905,0.478485631587332,0.456723256066469,0.480639476689205,0.438716544909803,0.516686086024801,0.499524254532124,0.505744890937351,0.461633884163707,0.490127530270878,0.498213695321059,0.432589960447281,0.500787640297595,0.504158013690833,0.476195068767999
-220,cane,12m,FO,0.524792932765612,0.505788660500178,0.422449567951723,0.402144561956318,0.461402488710788,0.48061478278216,0.453949662678312,0.481039211836664,0.440012535390758,0.520448852886495,0.503359580099143,0.508836203315472,0.463919968093124,0.488726104467072,0.49371660776573,0.426852083465873,0.502940235499378,0.505335224949222,0.47364187308492
-210,cane,12m,FO,0.527270502258507,0.506153340431892,0.428359209338381,0.394113333865849,0.460666473762123,0.482195228988331,0.451362297966096,0.482111170372892,0.441898893830358,0.52484565893101,0.507345047570178,0.511920243032844,0.466355590939908,0.487539483700886,0.488991279136997,0.421900692670971,0.504861951546719,0.505618970505841,0.471532218770145
-200,cane,12m,FO,0.530362162970513,0.50586460832935,0.433837931930001,0.38668247358084,0.459734267568042,0.48362618989037,0.448874423233688,0.483783566963656,0.444259163464336,0.529686608002971,0.511393781125557,0.514995192601904,0.468296114757723,0.486449054369268,0.484337427636406,0.418145185951225,0.506447711612278,0.505210183480371,0.470030337919399
-190,cane,12m,FO,0.534140813437143,0.505251546369384,0.438603355290963,0.380338217757649,0.458483858474795,0.485120416362359,0.445814554662262,0.48628090598481,0.446876728094932,0.535361122466046,0.515306005979023,0.517960602339703,0.469611811536692,0.485033243261565,0.479686672819908,0.415716008285205,0.507741476094629,0.504659813013227,0.469089481193105
-180,cane,12m,FO,0.538272522841735,0.504454315716464,0.442691431921061,0.374884382640716,0.45710446321365,0.486791899232873,0.442389075015652,0.489416051409615,0.449780788564133,0.541083671150938,0.518660751728538,0.520614486621052,0.470174563234637,0.483309218714069,0.474703211757833,0.41429188535189,0.508771315438869,0.503845570944869,0.468918476703557
-170,cane,12m,FO,0.54245105827103,0.503662331517782,0.445868521523817,0.370226739292332,0.45583893599117,0.488696936582882,0.438846120903205,0.493405603585249,0.452462548502451,0.546468470721375,0.521193548154479,0.523148100943509,0.469825323037159,0.481280469563062,0.469763673742314,0.413540205515189,0.509765599407389,0.502283605224293,0.469689312023615
-160,cane,12m,FO,0.54645105969573,0.502915987697225,0.447942801464497,0.366468206388481,0.45455535922429,0.4912998269921,0.435111701659373,0.498310643727583,0.455108684104169,0.551031926790622,0.52313415113328,0.525463695885314,0.469210396670045,0.479047424476053,0.465148724326913,0.412472014024933,0.510978240597584,0.500550612265969,0.471193746631605
-150,cane,12m,FO,0.550259128911319,0.501860094870201,0.449481716756934,0.363536611453255,0.453374963240323,0.494615709312201,0.431808588931245,0.503932569766798,0.456832288124346,0.555034104996574,0.524850421808256,0.527515327027357,0.46858778596174,0.4765984798864,0.460776462944549,0.411029984544324,0.512490466172462,0.498528919692793,0.472774165412957
-140,cane,12m,FO,0.553903963955865,0.500683711673463,0.4503906362515,0.361237179549222,0.452471502672479,0.498270887326283,0.429173631254676,0.509953663358579,0.458267733833265,0.55846972621653,0.526540672188894,0.529062856348642,0.467352357685813,0.473984188382026,0.456835715422706,0.40894678280816,0.514400391074389,0.495984206877048,0.473848908942241
-130,cane,12m,FO,0.557308766922087,0.499426817640908,0.449909718145522,0.359615409004191,0.452021478103345,0.501693138636062,0.427321005053968,0.5159405765123,0.45954147017433,0.56129173229519,0.528217460649476,0.530175555494132,0.465889215552163,0.470993668404934,0.453136248791029,0.405994435153094,0.516701880062166,0.492985970229151,0.475092960051926
-120,cane,12m,FO,0.560365028953181,0.498475575803257,0.448961294996825,0.357907297573467,0.451903897313112,0.504980172953873,0.426614980245146,0.521688783230334,0.461060441030481,0.563575647140659,0.529563734456546,0.530803552106268,0.464603692143683,0.467660802515571,0.449443257612396,0.402010290713836,0.519415862605022,0.489380381299481,0.476727884551422
-110,cane,12m,FO,0.563112952649647,0.498349204135068,0.447672608198829,0.356655951325675,0.451336418350357,0.508048183947008,0.427407687099021,0.52714305941289,0.462907319947796,0.565107269841497,0.530474903310386,0.530812586282503,0.463609636295761,0.464530146168423,0.446599106254683,0.397477605216608,0.522503064425695,0.485284729910584,0.478927589871657
-100,cane,12m,FO,0.565346766283029,0.498826735727603,0.446213957688416,0.356209443068174,0.450820156964316,0.510616153453469,0.42941268529315,0.531566790771606,0.465061891689967,0.56582665845737,0.53097107332884,0.530565092794475,0.462654932961938,0.461814106675526,0.445247741917657,0.39278389739239,0.526004107826641,0.480904271057917,0.48136790457811
-90,cane,12m,FO,0.567269016664322,0.499960869647335,0.444704975857651,0.355758051041685,0.450491064536448,0.51304797425588,0.432652455227358,0.534733061564485,0.467633897316233,0.566243632763522,0.53145663725538,0.530418514092863,0.461152503620525,0.459104724653513,0.444759885583752,0.388218055692851,0.529972143867638,0.476436621937749,0.483534339606585
-80,cane,12m,FO,0.56880455638155,0.50155640446152,0.443603127801722,0.35463964811152,0.450204063765539,0.51524286936866,0.436497960550771,0.5370684406937,0.470958376880513,0.566346484324855,0.532289171247448,0.530019044823361,0.459314997068485,0.456579679638034,0.44505525369015,0.384645760423139,0.53424002814712,0.472146631630556,0.485603704276053
-70,cane,12m,FO,0.569719173298973,0.503602116882953,0.44315061293137,0.353829615907329,0.449583767194899,0.516960231498988,0.440714257154392,0.538418544479014,0.474931263823401,0.566468004792224,0.533117488710724,0.529284059979281,0.457490168895861,0.454629548724024,0.445781913599127,0.381790731595655,0.538376180548749,0.468082690944518,0.487323653489054
-60,cane,12m,FO,0.570436496888099,0.505995729591002,0.443185287439712,0.353001996467178,0.448541549721269,0.518077843798476,0.445298362504136,0.538650420279407,0.478673329417422,0.566970131547598,0.533562678860239,0.52818722392674,0.455738593714629,0.453091775522986,0.446618962354731,0.379351489095961,0.541957218813929,0.464593552937135,0.488590592809924
-50,cane,12m,FO,0.571028160289976,0.508948783674434,0.444152626726748,0.352207676600116,0.446983185863787,0.518571833517267,0.449863449305517,0.537907572102378,0.482262563180522,0.567258059124092,0.534015510974103,0.5266615396427,0.454797595879184,0.451532564562747,0.447829621499251,0.37820275620082,0.545027282862259,0.461672937507624,0.489430911185639
-40,cane,12m,FO,0.571796578768276,0.512503649613182,0.446212593379273,0.351461473749469,0.445037110536577,0.519248361326544,0.454191007268838,0.536932452073308,0.485812229612284,0.567380754878941,0.534515263627399,0.524667842306756,0.454767825121716,0.449680515277934,0.449285939923865,0.377858462547674,0.547385490438652,0.459345857497673,0.489687084113469
-30,cane,12m,FO,0.572952609060332,0.516226396622125,0.449700469068917,0.350775944364305,0.442901169659846,0.520136598796621,0.458230680337519,0.536188227809619,0.489170185686832,0.567535844438914,0.535195680687676,0.522262759458983,0.455899429136775,0.447412013370053,0.4506755545207,0.377788100182807,0.548884939215973,0.457388994101535,0.488982918233457
-20,cane,12m,FO,0.574417260664145,0.520034771772095,0.455073836004396,0.350506959299191,0.441855455524667,0.521068963550696,0.461881133093442,0.535055175414248,0.492472895649738,0.567607783501832,0.536173509365014,0.519740810146975,0.457828373595338,0.44487806263709,0.45144452632542,0.377868909278047,0.549364179580509,0.455820934932181,0.488027157076022
-10,cane,12m,FO,0.576231016188406,0.523875241534619,0.462716077634725,0.350841406592369,0.441552946096251,0.522025937141521,0.465022882239183,0.533110457890975,0.496256623804338,0.568253271135428,0.537437597555288,0.517694234246896,0.460163555218602,0.441840071263725,0.451919094062694,0.377960413980992,0.548932317269996,0.454847542117018,0.487216096169728
0,cane,12m,FO,0.578527721492543,0.527918692395994,0.472315350884032,0.351768505981949,0.441875790608158,0.523254037806635,0.467465911815892,0.530724034164077,0.50080152437767,0.569322275853228,0.538934617472445,0.516002642155388,0.46299971618256,0.43861175029961,0.45217500652623,0.377917678214095,0.547156640589954,0.454268852786391,0.485267566861468
10,cane,12m,FO,0.580825706596876,0.532087355051773,0.483103581035245,0.353429895886091,0.442513900026176,0.524975920249999,0.469007994176412,0.528662881218286,0.505351970754625,0.570488992257353,0.540546911528372,0.514489014632286,0.465998922683416,0.435565310150038,0.452242719153512,0.377929440151373,0.544563701600395,0.454086661042213,0.48197287504734
20,cane,12m,FO,0.583085835691601,0.536322261125969,0.49346216652212,0.355434681079788,0.443440880549104,0.527109936925374,0.469549408954207,0.526230465164127,0.510054123826832,0.571769705647449,0.54248701197672,0.513257224023342,0.468930310404544,0.433234948106908,0.452223384901915,0.378092798411618,0.54123645073265,0.454045909838701,0.478222617788878
30,cane,12m,FO,0.585504385806257,0.540669508704907,0.503513867211673,0.357563265448232,0.4442516953713,0.529549536862084,0.469006810074516,0.523706538344328,0.514932976617095,0.573101924859094,0.544383038892668,0.512480481397575,0.471682925793885,0.431956211727701,0.45161568342127,0.378536294069355,0.537050633767505,0.453857685673492,0.474208097667795
40,cane,12m,FO,0.588568454951946,0.544466298922707,0.513306246753721,0.359622086176462,0.444413972631217,0.532337565146804,0.467584025688938,0.521301325139709,0.518873175026969,0.574442650509748,0.545968125597903,0.51234765147256,0.474613069594218,0.43136165281064,0.450727958274956,0.379373973499763,0.532473596029192,0.453355179436435,0.470245210626951
50,cane,12m,FO,0.591685487034243,0.547303662649727,0.522254320718919,0.361625479799005,0.444141441413643,0.535921754435683,0.464795015451449,0.518898903965156,0.522245230239403,0.575834658613442,0.547610575745824,0.512484898135625,0.47743763019491,0.431267539860153,0.44986399540762,0.380793473785248,0.527364540333799,0.452518447071678,0.466307347148101
60,cane,12m,FO,0.594750350968251,0.549303062075615,0.530752209298435,0.363566333478626,0.443870327292104,0.539858579290132,0.460881945154713,0.516363889417085,0.525279121542243,0.577251652502587,0.54963969824401,0.512687196432635,0.479856645658413,0.4314150258927,0.448776552408115,0.382686378626297,0.522063498880567,0.451287301875263,0.461974317704515
70,cane,12m,FO,0.597564846492762,0.550589221555848,0.538788277170512,0.365351232101567,0.443826283908597,0.543702141590273,0.456477905697974,0.513403792448707,0.527771209828454,0.578499868930104,0.551579237412489,0.512804123596368,0.481946912166979,0.431470881215901,0.44741157194723,0.384602833534036,0.516793991896809,0.449663741249459,0.458015793825782
80,cane,12m,FO,0.60006947246902,0.551339714928189,0.544935217633872,0.368076344764552,0.444118810750288,0.547055808639598,0.451721740226031,0.51033343548719,0.529512487960496,0.579371663812329,0.553302383526644,0.51270567385172,0.483809379880591,0.431408094306117,0.446092049362511,0.386456625567418,0.511727560773925,0.447754094576677,0.454379032124029
90,cane,12m,FO,0.602484556609731,0.551549496471128,0.549108921206075,0.37103027618203,0.44484009710066,0.549773357855886,0.446619090666681,0.507465124798689,0.530412464873301,0.579983779243701,0.554825639033143,0.512700382082974,0.485268797326884,0.431717299799531,0.445540873648047,0.388344828694341,0.507045335934702,0.445222752822757,0.450842297878755
100,cane,12m,FO,0.604605457954561,0.551996414152326,0.550961893716011,0.373620267292637,0.445540551170466,0.552016011493222,0.441445772674517,0.504623030415073,0.530318373663655,0.579682925712935,0.55625180272641,0.513139542927347,0.486263017071312,0.432370593094132,0.445318866666173,0.389734876396844,0.503176089771147,0.442235557460329,0.446859479173294
110,cane,12m,FO,0.606273165336113,0.552818887678628,0.550750424830245,0.37552224513532,0.445978592507474,0.553360726449042,0.436601202516283,0.501712674515128,0.529098433362371,0.579038152315871,0.557733508701103,0.51407641000228,0.487343254486386,0.433418341429468,0.445403408798993,0.390255875750108,0.500487331209425,0.438853885819546,0.442888338667648
120,cane,12m,FO,0.607659623171414,0.553962049429672,0.549019059970446,0.377047104552635,0.44651984536049,0.553942440694661,0.432074153852448,0.499094799320979,0.526925179057557,0.578343052496178,0.559092343620469,0.515416313907372,0.488302034094286,0.434943250594851,0.44574961200362,0.391869851900638,0.498153379117786,0.435267208248007,0.439454715154375
130,cane,12m,FO,0.608664848060154,0.555248629972641,0.546493394797989,0.37786220415267,0.44718186014131,0.553937669460769,0.428420989034017,0.496893194074766,0.524213102526337,0.577209692086326,0.560141062510685,0.517393436753327,0.488667633848224,0.43718568298584,0.446353963939393,0.393920812219361,0.496493886193389,0.432065518591741,0.435985912379353
140,cane,12m,FO,0.609062238164929,0.556495756666957,0.543323719620489,0.378247553728457,0.447775651200091,0.553331686195058,0.425935487559481,0.495116961687227,0.520922228908607,0.575566549258193,0.56075475119057,0.519983152457476,0.488113668563469,0.439905829864487,0.447150780700828,0.396055861831331,0.496153162139735,0.429818916523357,0.432639650789797
150,cane,12m,FO,0.608791684279669,0.557524924429096,0.539998349295553,0.37852861983665,0.44793826134993,0.552024784293745,0.424966258202131,0.493834727762459,0.516961038446975,0.573253806418429,0.561072063625771,0.522702856339708,0.487454297656781,0.443018431180185,0.448100220701315,0.398811766905837,0.496445047045848,0.428457755706737,0.42969013634522
160,cane,12m,FO,0.608156455458203,0.558334658807434,0.537436235132414,0.380133982098369,0.447780358997977,0.550175997621325,0.426225346046441,0.493020350662089,0.512392464900024,0.570539683404986,0.561496450264948,0.525372492179677,0.487049417473651,0.447145637806953,0.448980064736228,0.402014776115354,0.49694200784355,0.427890692052114,0.42737757443536
170,cane,12m,FO,0.607082236643367,0.558660048108929,0.535377068975014,0.38269504484812,0.447388664424376,0.54801523599319,0.429362196812231,0.492592922833948,0.507930080418698,0.56770208606592,0.562300805379321,0.527959641318467,0.486332159305398,0.45199232986539,0.450013241256129,0.405207499435116,0.497571889077955,0.427963560110683,0.42586893522356
180,cane,12m,FO,0.605526906405791,0.558367146777615,0.534154400261087,0.386525633223123,0.446513654190198,0.545517688169059,0.433905660762232,0.492595202589753,0.50394093634535,0.564556541674261,0.563183947293236,0.530409652452678,0.484866370996228,0.456982410589099,0.451096570989365,0.407877757685347,0.498611843373046,0.428351154674798,0.425633751990647
190,cane,12m,FO,0.603311430793788,0.557579971846596,0.534002531597924,0.390726150176697,0.445282259586239,0.543366518291342,0.439782023841972,0.492879156560052,0.499398314823692,0.561047194128923,0.564454042418236,0.532663472768296,0.483432543278134,0.461921897732071,0.45249416900019,0.409824577881292,0.500213692069408,0.429149222397305,0.426605316342802
200,cane,12m,FO,0.600504766765448,0.556288402140907,0.534171064527218,0.395016750490855,0.443924392871114,0.541595248456029,0.447153594116006,0.493462241375931,0.494263894114192,0.557303934314187,0.565857456882321,0.534857049435142,0.481936405121124,0.466682095117136,0.454004574164531,0.411375588066384,0.502864003566838,0.430759006571855,0.428443576600041
210,cane,12m,FO,0.596975930790313,0.5543424235572,0.534480794457848,0.399216143683332,0.442480607078267,0.539884453013577,0.454884497609659,0.494068470686359,0.488754529509853,0.553175038085972,0.566810028057872,0.536803497018668,0.480504379037243,0.471168168073706,0.45560639401291,0.413401607601645,0.506756531024845,0.432629005070652,0.430737457771864
220,cane,12m,FO,0.592863967002308,0.5520456924891,0.535093827444359,0.403821085467466,0.440934391495187,0.53794753831588,0.462041931862177,0.494733883800526,0.483298501556914,0.548880390043388,0.567284624395071,0.538484788621016,0.479335864975802,0.4753295120785,0.457402603499497,0.416276652075506,0.511190780707658,0.434681393514561,0.433308845581382
230,cane,12m,FO,0.588321425548218,0.549780167084288,0.535812929915155,0.408902954785769,0.439131225158452,0.5360263496937,0.469269102485991,0.495117014405646,0.478000520695924,0.54447808121737,0.567554795597773,0.539865242742462,0.478080962589257,0.47952156565278,0.458915250736077,0.419419187128423,0.5158771617959,0.436995421258033,0.435888214737614
240,cane,12m,FO,0.583505821528045,0.547212379492262,0.536739934644089,0.414138426871981,0.437394709992237,0.533081700214994,0.477349557452812,0.49504263445114,0.472702081549508,0.539311404430858,0.567030948227567,0.540934919280924,0.476951584851425,0.484044556170274,0.45993769734083,0.422600201615282,0.520663873643481,0.439694922519653,0.438683980072812
250,cane,12m,FO,0.578165999080679,0.543832663678085,0.537706545526055,0.419121614277877,0.436240643160492,0.529742851232614,0.485742023034212,0.495166351549284,0.46708334119802,0.533722416531705,0.565955996485044,0.541609909105958,0.476221079751894,0.488433177383897,0.460075580470041,0.425841132067809,0.525419138997022,0.442659585487986,0.441913884267119
260,cane,12m,FO,0.57251128524645,0.539858085292835,0.538418487919323,0.42352254898199,0.43569280951048,0.526443048889314,0.494459677134886,0.494860676362192,0.461232876598427,0.528330347274764,0.563690697617244,0.541769410979529,0.475374260490232,0.492561208898248,0.45949519966457,0.428693126001494,0.530356461810129,0.445936813126148,0.444924708496909
270,cane,12m,FO,0.566868280489128,0.535405642106793,0.538653565627574,0.426944791834751,0.435657115816543,0.523061227332633,0.503457584240648,0.493784574415359,0.455571593048145,0.523209961823084,0.560849340523683,0.541763496493986,0.473709658129822,0.496270703577591,0.459084172493942,0.431832993622754,0.535144284269772,0.449135468522108,0.44792842636134
280,cane,12m,FO,0.561372373273684,0.530396178450965,0.538368425268519,0.429864116244114,0.436154522856683,0.51994988287241,0.512482839252273,0.491716395608831,0.450746257260766,0.518085301409419,0.557536299378677,0.541021950810719,0.471228792586345,0.499029853862585,0.458639099093379,0.435941556971032,0.539560841195555,0.4524742353935,0.450892271568
290,cane,12m,FO,0.556565187080351,0.524833502407216,0.537176949687921,0.432211419189393,0.43646054808801,0.517543647327491,0.521151618175665,0.489392618049312,0.447105692529713,0.513020657683271,0.554499767742919,0.539600527915108,0.468084782407274,0.500870849909525,0.458018183472754,0.440428202763253,0.5434028220035,0.455948884655774,0.4530978502657
300,cane,12m,FO,0.552522138915747,0.518851873592693,0.535398306845772,0.432810284912433,0.43583171103569,0.515223821388648,0.529304698075862,0.487095338613568,0.444215134431928,0.508166124418558,0.551734534799374,0.537571807550006,0.46468028704711,0.502131908888471,0.456828402487202,0.444165344854819,0.546714329122031,0.459069398396018,0.454656567440766
310,cane,12m,FO,0.549150086113295,0.512818239468857,0.533425653319937,0.432550367712373,0.434626939216866,0.512748390127619,0.536755245367436,0.484668551278662,0.442278518350645,0.503352536237103,0.548912414431433,0.535141598741647,0.461697536065073,0.502575830558781,0.45543865609037,0.447048737532734,0.54946562247706,0.462401555481291,0.455756429992014
320,cane,12m,FO,0.546414995447642,0.50730108852817,0.531021981728177,0.431574095381309,0.432730219957691,0.510229660051811,0.54319531357413,0.48229511203785,0.441433074989243,0.499081786009049,0.546197985737101,0.53230645316599,0.459396600628766,0.502382232137985,0.453451811470532,0.448740259757329,0.551624999451537,0.465568618782747,0.456407871247259
330,cane,12m,FO,0.5441835945299,0.502359821620892,0.528228454207275,0.429574876522912,0.429948334443223,0.507528363373204,0.548435665261612,0.479703257593541,0.441729294715612,0.496021996131862,0.543623868231863,0.529070869026569,0.457576518638301,0.501572138305957,0.451111070656846,0.448424561149669,0.5532792228654,0.46873851154019,0.456996561484887
340,cane,12m,FO,0.542356578203645,0.497888842491005,0.524429575510248,0.427019828103815,0.426171945132117,0.5045599627689,0.552117455524024,0.476978325786628,0.442791361699265,0.493643860082874,0.541156658281975,0.525588494296178,0.456134839995835,0.500541397836285,0.448264323359245,0.447115541665238,0.554600118476439,0.471689160867821,0.457520408850387
350,cane,12m,FO,0.540823259513508,0.494138139928717,0.520936489422762,0.424043703897078,0.421725324996781,0.501871683566417,0.55380751697352,0.474244281593036,0.444336366522326,0.491934244624471,0.538926092433564,0.522119424338208,0.455447690711367,0.499574286529258,0.444864712881974,0.445566656087352,0.555123925529759,0.474586007318051,0.457756424133138
360,cane,12m,FO,0.539652302967968,0.491080055195085,0.517910954750742,0.42029637986381,0.41699826688987,0.499375364772053,0.553783550956569,0.471307200545351,0.446120430439099,0.490749461181491,0.537314107091055,0.518808134087866,0.455565020899368,0.498801092894168,0.441203467629652,0.443752203438487,0.554427390270612,0.47737336565528,0.457929301468196
370,cane,12m,FO,0.538836041324599,0.489292519345628,0.515463743145429,0.416762590249161,0.412080265079642,0.496963274024035,0.552096248535413,0.468498949804897,0.447722858116174,0.489962806331492,0.536329893619612,0.51572410608783,0.45592792259198,0.497940852436127,0.437314195508684,0.44124385756835,0.552679267540141,0.480710143333597,0.458055825989195
380,cane,12m,FO,0.538122393948374,0.488685115881802,0.513688623436219,0.413809392898566,0.4072146489823,0.494513162602864,0.548910416421281,0.465539069509275,0.44978815785824,0.489809600592474,0.535761356946854,0.513043364532408,0.456462702410963,0.497025331731808,0.433122257049073,0.438152242325882,0.550059616198606,0.484663312051469,0.458156235549806
390,cane,12m,FO,0.537638932628238,0.488808078960351,0.51274319687402,0.411375003778722,0.402425577371738,0.492180594703299,0.544951785814464,0.462531810538715,0.452424501574861,0.49071645307328,0.535342688365425,0.510625051165229,0.457382785625977,0.495931361699339,0.428722729984338,0.434271410214473,0.546232100129796,0.488459942310236,0.458343951357724
400,cane,12m,FO,0.536973430148492,0.489083781970392,0.512951265344305,0.409173466388785,0.397989209405945,0.490291516177226,0.540607935012725,0.459768964195055,0.455912245836152,0.492208004628775,0.535327636183778,0.508438291772632,0.458239455468918,0.495219880496702,0.424468927060126,0.429551164210592,0.541427606144221,0.491961857619323,0.458362256469464
410,cane,12m,FO,0.536278410920113,0.489649806667497,0.51348754450508,0.406826380059961,0.394852245577326,0.488836575599939,0.536178380433396,0.457315399018369,0.460046955359058,0.49434737491762,0.535265943446365,0.506348603500003,0.45847049116499,0.494737039222232,0.420700891573612,0.424149988376839,0.535967617867502,0.495161424712121,0.458465447212944
420,cane,12m,FO,0.535606017359542,0.490289536934391,0.51461243795375,0.404308158219754,0.393050767138539,0.487509753160826,0.532542317410557,0.454776659451678,0.465153538173792,0.496066202293746,0.534950956410136,0.504390949130978,0.458172738130695,0.494262712107998,0.417519770915883,0.417889626612489,0.530327303958237,0.497806066128621,0.458657982212542
430,cane,12m,FO,0.534673434508653,0.490421794447979,0.516463932468938,0.401595908025913,0.392031994458847,0.486302703820837,0.529687620670671,0.452230420116672,0.471241052682123,0.497784478669078,0.534360943207219,0.502347317652525,0.457394837992727,0.493878450855457,0.414740551211584,0.411177844943532,0.524614615348736,0.500134311754769,0.45892928304
440,cane,12m,FO,0.533638504163131,0.489949842269284,0.518913822278484,0.398764715075523,0.391244314116044,0.485958240877148,0.52806976756558,0.45020402255797,0.478195844856989,0.499231982283428,0.533095088601321,0.500253766069102,0.456125211622401,0.493558859917949,0.412057178801564,0.404486655425269,0.518808389309712,0.502305414714923,0.459425961080364
450,cane,12m,FO,0.532264286016066,0.489212234449355,0.521635027608983,0.395734680949647,0.390954179753274,0.486250320900598,0.528083279744764,0.44866319598915,0.485814184454759,0.500396951134915,0.531671261696418,0.498311792333698,0.454867343749264,0.493404512368332,0.409640545319522,0.398156618094401,0.513128874584991,0.504565225680149,0.460406827181325
460,cane,12m,FO,0.530643046379873,0.488114893880253,0.524222359436715,0.392600172668447,0.391305334283859,0.487027155275202,0.528264292142084,0.447592949507803,0.493846495718535,0.500975500441389,0.529989834821808,0.496312519320787,0.453534967147894,0.49328286866607,0.408091795173467,0.39198849699958,0.507936592326899,0.506817747559617,0.461894240554168
470,cane,12m,FO,0.5288624686045,0.486743365758398,0.526512281413983,0.389183892201068,0.392329769210433,0.488006947141092,0.527800835517655,0.446910766325778,0.502036694250177,0.501080755643008,0.528262770156205,0.494419866362068,0.452010121799088,0.493359400475889,0.407759443913571,0.386507918529589,0.503398858603556,0.508929767558696,0.46355751635441
480,cane,12m,FO,0.527066503840067,0.48501054430911,0.528073549217924,0.385956164749543,0.393866505890454,0.489244470186995,0.526926815595046,0.446488078820029,0.510103612332875,0.501050726038014,0.526394680321117,0.492529000730287,0.450536535612289,0.493332296888205,0.408997367923875,0.382421680130205,0.499482900187219,0.511063701190245,0.465621427999939
490,cane,12m,FO,0.525229664642416,0.483056924289513,0.52879913592468,0.383011559714542,0.395981088241444,0.490462353408024,0.525886370594502,0.446086476370544,0.517760290955216,0.500854238019776,0.524980675028945,0.49089646000202,0.449089450670323,0.492824199749569,0.411103167964593,0.379563579615537,0.495896502819567,0.513351834343678,0.468304120886378
500,cane,12m,FO,0.523139776365148,0.480919799964429,0.529070413787102,0.38014322110391,0.398736838215221,0.491981535657352,0.524962491093591,0.445621200160452,0.524969536732789,0.500623950892293,0.524100182682959,0.489761683917204,0.448500816569293,0.492139051421516,0.413980784085207,0.377532282390592,0.492609918182917,0.515512024297011,0.471377621548134
510,cane,12m,FO,0.521312995292844,0.478726900995666,0.529687266527825,0.377065232991035,0.401551996460584,0.493729449379398,0.52422263486965,0.44521082011856,0.531116893866891,0.500063897803271,0.523383553779099,0.489123861429802,0.448632145233498,0.492006950181685,0.417458192241613,0.376101073228042,0.489294245049704,0.517471513835709,0.474607214237094
520,cane,12m,FO,0.519884829428811,0.476432851163216,0.53011070395612,0.373778447062499,0.404608598383446,0.495512374501133,0.523429656109827,0.444860656777703,0.536285485425803,0.498992685954975,0.522774421945194,0.488816935072093,0.449117649420196,0.492585111211054,0.421218827322228,0.374183582765495,0.485888971732799,0.51865982171942,0.478099829964087
530,cane,12m,FO,0.51873442871968,0.473812867561218,0.530575762423242,0.370311114945256,0.40791598480496,0.497354047292354,0.522362659700594,0.444686250834099,0.540002725536254,0.498076676001491,0.522463069000662,0.488990587075042,0.449475416566669,0.493698123274695,0.424929458798548,0.372623916472533,0.482635670572548,0.519661067565009,0.481991452566901
540,cane,12m,FO,0.51762461480038,0.470815744506022,0.531211724280801,0.366335780565532,0.411329994557032,0.498902863887808,0.520873572393248,0.444474749951664,0.542867343804412,0.497861242498528,0.522580630114344,0.489598334839398,0.449931472244474,0.495114405947138,0.428836530164654,0.370783782743538,0.480704064637918,0.520878220582453,0.485924543312327
550,cane,12m,FO,0.516613890788836,0.467642105808601,0.531960060247044,0.362429743342539,0.414559021892809,0.500389508500617,0.519000471607042,0.444525497332404,0.545181669846502,0.498954586253266,0.523488630229631,0.49063985523347,0.450522220972896,0.496513260848538,0.432783422762117,0.368944290952477,0.479812903883266,0.522313116946049,0.489859800670341
560,cane,12m,FO,0.516033143770641,0.464417885140452,0.531939124019604,0.358954510169841,0.417760804028842,0.501617368168369,0.517212790461615,0.444867790327217,0.546847521604159,0.501610011114534,0.526137540510253,0.491764963929065,0.451550998000266,0.497593647222682,0.436444044416822,0.366990658669625,0.478788471641242,0.524105918629383,0.493321616525986
570,cane,12m,FO,0.51528784240671,0.461208112767196,0.531548182153348,0.356059629172611,0.421078331296355,0.502629033525735,0.516113371294211,0.445501013796942,0.547504610725759,0.505019265022757,0.529592020453525,0.492913636893276,0.452384113442821,0.49837844254004,0.439848361756746,0.366448513641691,0.477353003743354,0.526107045315509,0.495981482276367
580,cane,12m,FO,0.514383266937677,0.45816493982511,0.530685478673594,0.353731630816979,0.424421706047637,0.503913644300708,0.51497440215621,0.446008094321832,0.547205151680064,0.508688816184731,0.532879436776932,0.494375486426555,0.452789366443656,0.498475466954343,0.442797750869873,0.36691334562897,0.475848846623175,0.528179870394576,0.49857220022512
590,cane,12m,FO,0.513428469807831,0.455408885876117,0.530284094031978,0.352574240835885,0.427735365795167,0.50593670327419,0.513690654561771,0.446324499856286,0.546687135202587,0.512458157835565,0.535217165470495,0.495946364090491,0.452875241788772,0.498003263352597,0.445272858745155,0.368488541779967,0.474116757055819,0.530030650105774,0.501192584008953
600,cane,12m,FO,0.512385393364278,0.453034771181083,0.529480259339156,0.353527404625246,0.4308728165567,0.508760252999613,0.51210416184799,0.446365598792397,0.546112618294132,0.516378730307092,0.536861950552231,0.497306202442281,0.452785131771594,0.496934914357718,0.447316116999223,0.370149169146099,0.472003015415827,0.531397523002682,0.503798315134295
610,cane,12m,FO,0.511418954338986,0.451100598937599,0.527974459238552,0.356066435198081,0.433902426187756,0.512439329854114,0.51075805614726,0.446197374958131,0.544796641424425,0.520472547999794,0.538018822115187,0.498343885341837,0.452109684736512,0.495484852836415,0.44863608909012,0.372123997905458,0.470090622169818,0.532075365027751,0.505999501635183
620,cane,12m,FO,0.510558872810299,0.449257889990913,0.525866399619095,0.360130183976893,0.436839998051575,0.517045714754944,0.509684249061971,0.445991848674549,0.542955117486522,0.524719288771782,0.538851485544442,0.499284071765107,0.451237030003504,0.493856776782752,0.448932267283704,0.374823606379504,0.469038878864443,0.532309473692625,0.507418479086185
630,cane,12m,FO,0.509867648304217,0.447135178074375,0.522584852438186,0.365234192414231,0.439548470230415,0.521389781220377,0.508557854052571,0.445544096401868,0.54031916840247,0.529092641481522,0.53862417942396,0.500307019400982,0.450479686715648,0.492034026866066,0.44869912192347,0.379142646845412,0.468339141429661,0.5323252437493,0.508315690067098
640,cane,12m,FO,0.50933760470324,0.444649958330734,0.517959624244194,0.370175014407308,0.44172289205263,0.525682607777531,0.507628374350267,0.444447156561145,0.538081589351471,0.533236418850436,0.537423073279565,0.50114515464897,0.449871658092849,0.489898055821222,0.448030232260465,0.385409791266966,0.467855154538487,0.532500924151478,0.508780876180125
650,cane,12m,FO,0.508788530737563,0.442006264730942,0.512903972580611,0.375911903482088,0.443487089397126,0.530038590439589,0.506937634152582,0.443062185160662,0.535819127627745,0.537334509988243,0.535563556178721,0.501742352338455,0.44995656360217,0.487367809524049,0.447044542778823,0.393091597262985,0.467422758852141,0.532646994183855,0.509053005445246
660,cane,12m,FO,0.508075198257377,0.440483445226161,0.507216202438563,0.382345801285777,0.444715405491172,0.534337685763276,0.506392489291801,0.441848798983834,0.53277485017628,0.541163373057873,0.533055227472961,0.502138382996243,0.450990850222568,0.48469797696147,0.445487144131948,0.401959994581216,0.466819933789902,0.532286578607787,0.509252807826768
670,cane,12m,FO,0.507269952231506,0.440242819576375,0.500828609183098,0.389375899448109,0.445821005122013,0.538112569730805,0.505907251287083,0.441094076506284,0.529064957861486,0.544045287897451,0.530199066516147,0.502299969550916,0.451873046437314,0.481798706094848,0.443446067320052,0.411854346465307,0.466155750360644,0.531743320792555,0.509626943069176
680,cane,12m,FO,0.506345847918539,0.440880514929416,0.494000344184542,0.396571844576027,0.446623592513059,0.541283377850674,0.505563713161224,0.440992716687923,0.524723484823115,0.546560034003933,0.527478987096878,0.502069572252516,0.452783208909279,0.479170847095405,0.440747805113425,0.421828144690329,0.465794905199272,0.531311281836828,0.509754244812049
690,cane,12m,FO,0.505563656822276,0.442464391933487,0.486721773295386,0.403465947913799,0.447394163716073,0.543939642983142,0.505587763631249,0.441574569287421,0.519745965878717,0.549113582140836,0.52510117317067,0.501351865994968,0.453899744224328,0.477045495003055,0.437624124037237,0.431939103970308,0.465914676442702,0.531076405960201,0.509284187838351
700,cane,12m,FO,0.505167890708234,0.445141005703554,0.479116866574127,0.409660943774669,0.448161089207591,0.546148354947346,0.506353057581553,0.442567242960551,0.514204469653227,0.551160558888066,0.52315596056503,0.50024996300008,0.454666661630896,0.475399284523381,0.4342160853642,0.442015682420036,0.466533719160028,0.530951747777834,0.508156449296945
710,cane,12m,FO,0.504873288813497,0.44858457986375,0.471409277029664,0.414915166761671,0.448864408932016,0.547752430490478,0.507174690471837,0.443746988435936,0.507646199812451,0.552211913840762,0.521544667448345,0.498857807244119,0.455261461052175,0.474058484908264,0.430963397211489,0.452051424926925,0.467561242282663,0.5307509500279,0.506771767664
720,cane,12m,FO,0.504768298438221,0.452607031877746,0.463784120905102,0.418748040623985,0.449292465675897,0.548517076567015,0.506697067247304,0.444635578089003,0.50086580131409,0.552019631116414,0.520271457035221,0.497396340523283,0.455341077043112,0.47293172739534,0.428234575476386,0.461708797602672,0.468982764607279,0.530441880400971,0.505379712034308
730,cane,12m,FO,0.504760081782386,0.45677485726491,0.456351432239972,0.421135979706649,0.449726788363565,0.548865034609046,0.504909549470308,0.444880163784401,0.493911494665399,0.5508392628249,0.519674666428312,0.495923084577917,0.455001387545183,0.47208657951164,0.425973315851674,0.470607929898573,0.470888920128232,0.530221420410053,0.50408511052279
740,cane,12m,FO,0.505221835977649,0.460781494764251,0.44932720146952,0.422339038255972,0.450545674243623,0.549098590237042,0.502765783857637,0.444941926193996,0.486856306111747,0.548810912297284,0.52009179268519,0.494775279480574,0.454205507657735,0.471642283872658,0.424246107362527,0.479191368053848,0.473075767598375,0.529844817361395,0.503129973889559
750,cane,12m,FO,0.505919484074772,0.465317018050848,0.442874606528552,0.422050858366154,0.452177375930385,0.549388027654034,0.500600415629518,0.444779059485255,0.479662946042823,0.545949614889959,0.521081148622935,0.493895069281965,0.453271146589901,0.471546013076521,0.423051958600724,0.487470200330418,0.475435924366221,0.528900426060243,0.50273827476582
760,cane,12m,FO,0.506662953660192,0.471015513859114,0.436696657008336,0.420942567959349,0.454102419329766,0.549198599524552,0.498096478202388,0.444296737599124,0.47224921129229,0.542356283848089,0.522106504683777,0.493112829780668,0.45247783599651,0.471568422749835,0.42189879451183,0.495006170598112,0.478069992027035,0.527144567119606,0.503326139128336
770,cane,12m,FO,0.507413253063524,0.4776837749902,0.431189512791099,0.419868062938301,0.455673912378305,0.548457825726879,0.495544028121301,0.443718300336781,0.464689908542492,0.538529756756855,0.523033815533972,0.492343524106321,0.451889308019859,0.471744604300119,0.42047026606598,0.501356159258273,0.480980733575777,0.524594351239519,0.504533404999765
780,cane,12m,FO,0.507812419768084,0.484964754947348,0.427188823155064,0.419580391051315,0.456454500367197,0.547050666596406,0.493077472950179,0.442515352813032,0.457368036895551,0.534213776609456,0.523860662988542,0.491633097175193,0.451319474504929,0.472123047793496,0.418755307574053,0.506968257908793,0.484173490479388,0.521412261268131,0.505878958940201
790,cane,12m,FO,0.508284126181678,0.492170134569745,0.424862037811346,0.419473434995617,0.457086919801011,0.544674511819364,0.491324128311463,0.440602762664893,0.449774351115956,0.529634484496401,0.524544991338026,0.491058609680541,0.450224542857132,0.472971207997391,0.416818588771221,0.512405961931035,0.486901393859142,0.517826528467048,0.507690661862815
800,cane,12m,FO,0.508578505145359,0.498798652172516,0.423552057708891,0.419721073438432,0.457528052998405,0.541434636074979,0.48960879462687,0.437888605623917,0.442184046944741,0.525170824678071,0.524611082583751,0.490487040656734,0.448895802619559,0.474283420946895,0.414884768511461,0.517615642220925,0.488824949053866,0.514016755496804,0.510167421958849
810,cane,12m,FO,0.508577158060719,0.505102811992295,0.423082300986064,0.419903536150529,0.457693684373846,0.53744746189723,0.487552777096747,0.434225150697924,0.434736705465799,0.520673807973702,0.523568228989433,0.489979419052971,0.447588610612287,0.475428822166405,0.412819724404017,0.522154980039871,0.489695135469084,0.50998463394066,0.513242185035751
820,cane,12m,FO,0.508587879847936,0.510886026915269,0.423269505057007,0.419751375812149,0.457594811648831,0.532730220640882,0.485256033130759,0.429900181987324,0.427811647906665,0.516172240204609,0.521640241826874,0.489431382530485,0.446221368207232,0.476304411447873,0.410626165922532,0.526482232100059,0.489396749600218,0.506006480469879,0.516911398403467
830,cane,12m,FO,0.508467661633276,0.516051139182028,0.423801092687857,0.419266067972977,0.457450949379496,0.526930193098122,0.482550920702564,0.425035751193678,0.422465585227844,0.512166913247834,0.518592276768193,0.488733501565482,0.445027130771712,0.476983486620252,0.408656189562624,0.530498219965043,0.488486954057086,0.502397108122561,0.521261214330489
840,cane,12m,FO,0.508208639711624,0.520196597353986,0.424537488084716,0.418855477610253,0.457651044088064,0.520820523607748,0.478823713371467,0.419909434507202,0.418263541696172,0.508351065913108,0.514522382154155,0.487778918627558,0.444060517563521,0.477670899028448,0.406981019427047,0.533909871872732,0.487647916877872,0.498964943768349,0.525738988883821
850,cane,12m,FO,0.507821871854935,0.523058249776374,0.425511090689055,0.418857230755849,0.458220011281161,0.514619362854723,0.475007221471032,0.414621178023588,0.41520538895676,0.504563014402734,0.509758121747487,0.486638317972128,0.443035536179847,0.47827576369837,0.405441375795697,0.536713209628117,0.486917547588205,0.495671190320772,0.530069719615397
860,cane,12m,FO,0.507541437760833,0.52443430736426,0.42681534514318,0.419384144743521,0.458683533977835,0.50820154547629,0.471725626137674,0.409355281140573,0.413698855051861,0.500759078912441,0.504380314546835,0.485386250240265,0.441703543871145,0.478868272585691,0.40390134293759,0.538509611832548,0.485820328950639,0.492263586807603,0.534472272506777
870,cane,12m,FO,0.507355905275756,0.524520287513635,0.429385740443655,0.420860023437651,0.459253488866972,0.501590895591785,0.469036843191897,0.404015050530484,0.413047537149403,0.497039888528396,0.498642521338894,0.48418215335843,0.439913402111857,0.479593068665002,0.402068891286316,0.538835103785179,0.484416591221484,0.488923099909981,0.538984585234506
880,cane,12m,FO,0.507288151119529,0.523899458823598,0.433766997858565,0.422977577016929,0.459923773600817,0.494822174739429,0.466925695286185,0.398626946375995,0.412932639223231,0.49339059277527,0.493551015049806,0.483035984090935,0.437857454115824,0.480393392000155,0.400373820734251,0.538082207651683,0.483590170504691,0.485772702847261,0.54336067161861
890,cane,12m,FO,0.507207460147538,0.523178632027711,0.438693342129502,0.425326060101283,0.460545956492377,0.487991971061615,0.46571605348667,0.393326486718492,0.413871947059724,0.4894247887225,0.489415106285723,0.481802128388531,0.435667221085921,0.481362000060277,0.398484790511858,0.536897305995506,0.484008919006882,0.48278403473687,0.547545344991546
900,cane,12m,FO,0.507395992386611,0.522331134340254,0.443790955200783,0.428435563863898,0.461179098737067,0.481192336215758,0.465168712360065,0.388041090825958,0.416273158897182,0.485482702577226,0.485729307170296,0.480360489133972,0.43310272219533,0.482379935081948,0.39711529891403,0.535475462940734,0.48528205105339,0.480033175979789,0.551409215180063
910,cane,12m,FO,0.508142819464319,0.521117395827546,0.449587714244641,0.431792990320634,0.461250266544103,0.474358551653155,0.464315602003927,0.383204122059832,0.419720700837416,0.481546069455182,0.483028992893561,0.478670366851941,0.430781627220871,0.483711919249482,0.396327274898972,0.533850986013977,0.486879704192972,0.477427989072401,0.554896813561199
920,cane,12m,FO,0.509123013377843,0.519714176082053,0.454797027003767,0.435307142468954,0.461121645171537,0.467585145888247,0.463522419304529,0.378849703899921,0.42343789198126,0.477500948873104,0.481202362608645,0.476856234923507,0.429118350064429,0.48539333274487,0.396021892165889,0.532557400214668,0.488840206736264,0.474839128221759,0.558130430903423
930,cane,12m,FO,0.510285889428697,0.517989468260696,0.459216829585353,0.438913344314051,0.460913025501644,0.461091397510085,0.463282179104315,0.374671020736585,0.426190141243583,0.474042623678721,0.480667890140965,0.474738781880681,0.428222117895491,0.48766575440547,0.395767036439988,0.531982558533178,0.490819941094682,0.47216154239554,0.561069898653414
940,cane,12m,FO,0.511514968762546,0.515695118012253,0.462894665438523,0.442148569330254,0.460677286250642,0.454674524262225,0.463189901312923,0.371029704589077,0.427809826839507,0.471286330557544,0.481507745097582,0.472425547725991,0.427998420627777,0.490527777041145,0.39571995352472,0.531100174082789,0.493363260708475,0.469425675810658,0.563279805637616
950,cane,12m,FO,0.512566834877246,0.513310453771354,0.465140994841306,0.445141858172373,0.460929232447149,0.449013517187752,0.46343901087293,0.368443315816,0.428554382782561,0.468873009741451,0.483063570626848,0.46993681200551,0.427863844587611,0.494101728193723,0.396117852509851,0.529444414313643,0.496176115863969,0.4666538822655,0.564688239786894
960,cane,12m,FO,0.513591917701663,0.51065919606597,0.466618814946231,0.4481293347646,0.461495209307938,0.443744823112686,0.464334201255384,0.366793935204959,0.428953334031482,0.466588911866898,0.485382101053528,0.467337394628365,0.428069077994974,0.498350899884251,0.397309812693241,0.527528495906846,0.498616718074357,0.463645167158517,0.56539527435047
970,cane,12m,FO,0.514620691710572,0.507296064013721,0.467745059640991,0.450896649387652,0.462949790773998,0.438691024868602,0.465635990632728,0.366099025413056,0.428586051356993,0.464838533246838,0.488029408809315,0.46486966793793,0.429157233320741,0.503030985936671,0.399650329808063,0.525235214240535,0.500436472481601,0.460858706799267,0.565437282544173
980,cane,12m,FO,0.515450206603808,0.503414181560167,0.469644425556885,0.453033985992889,0.464675338928179,0.433991754312881,0.46773165725406,0.366507651853167,0.428945820445714,0.463671757740934,0.491040015816394,0.462574721350385,0.431090063801118,0.507709682034038,0.403119580198507,0.522134361031318,0.501530973860704,0.457835698073764,0.56467336838757
990,cane,12m,FO,0.5158855371096,0.499409421612315,0.472336622715065,0.454666007578179,0.46663139151999,0.429853629836483,0.47112410339932,0.368290701295885,0.431201296468583,0.463368146718708,0.494055800707584,0.460691861673204,0.433065548815158,0.512365668267616,0.407388066991984,0.518558222011366,0.501911550106679,0.45436441592792,0.562681324942507
-1000,grasp,12m,FO,0.478769249779874,0.496564529217458,0.573456501188462,0.414030105051492,0.457211010425483,0.474950035639931,0.397015295543494,0.390561583465509,0.52181431887709,0.451490586553095,0.45422392670082,0.421806922940218,0.509083295911369,0.433377340534657,0.421351663534289,0.481942518430248,0.482148263370297,0.430508060088801,0.548107685023576
-990,grasp,12m,FO,0.475778931722115,0.497909594928357,0.569454214951761,0.417693178865326,0.457293439693625,0.473520058604652,0.396195654795617,0.39274674565317,0.520028914690032,0.450081478907352,0.452015844240993,0.420121970820392,0.508115249106214,0.43397425734841,0.419243050509911,0.481550810594023,0.483207546366455,0.428180929428202,0.546914013615884
-980,grasp,12m,FO,0.473124999605183,0.499515080391524,0.564884041178968,0.421097197397533,0.457462542284226,0.472307383788954,0.394589249156096,0.394776382917017,0.517693730619466,0.449041057345692,0.451264554982558,0.418187723238708,0.506523166967769,0.434630997541066,0.416573204412018,0.480479945881847,0.484792363135534,0.426942261288688,0.545615716858864
-970,grasp,12m,FO,0.470922070973201,0.501399218193947,0.560057592583424,0.424118222560592,0.457550185067096,0.471308326518815,0.392160956196999,0.397089677852617,0.514920902253884,0.448352805909188,0.451173990795882,0.415917197398348,0.504375323958682,0.435214598099805,0.413196751758322,0.4786575410163,0.486409262747304,0.426004493659726,0.54428054790686
-960,grasp,12m,FO,0.469194029583832,0.503608383587594,0.555068279434321,0.426737502416605,0.456922514426431,0.469968032252492,0.389578616781728,0.399810771378281,0.511720995343259,0.447831493588102,0.451741293384283,0.413624423850149,0.501749252079132,0.436067586889195,0.409665617782517,0.475960944541818,0.48826795383246,0.425211112597593,0.543029064111509
-950,grasp,12m,FO,0.467822662949107,0.506114956897012,0.550004950516221,0.428898190130093,0.455404682718592,0.46853073899161,0.387549088419614,0.403309708137517,0.507710997695455,0.447687032851142,0.45276400508764,0.411599610354512,0.498716921841308,0.437462170050261,0.405568950343887,0.47248090896918,0.49076216841058,0.424279401041508,0.541651881141635
-940,grasp,12m,FO,0.466909183231514,0.509066217122527,0.545210614020331,0.430527062648039,0.453308499679296,0.467399198485563,0.385992548914595,0.407399512245311,0.502498626975032,0.447921467013101,0.45439419545086,0.410098863517106,0.495454971347456,0.439704101570911,0.401408585188949,0.468123103753093,0.494117578164915,0.423793089313741,0.540569786880381
-930,grasp,12m,FO,0.466345861499853,0.511879236578214,0.541037791717051,0.431935562262003,0.450833032877055,0.4667883470015,0.384601109723468,0.412611500592291,0.496286548005476,0.448485836376159,0.456464301109331,0.409073084490635,0.49202845457594,0.442192612273192,0.397330520328047,0.462810667935984,0.498173939969324,0.424049936207968,0.539781515689286
-920,grasp,12m,FO,0.466018735472063,0.514423903175531,0.537163339219505,0.433246685003321,0.447895444862364,0.466469046212609,0.383797334332966,0.418600845387007,0.488631205146872,0.449828522833565,0.458841156900417,0.408396082125118,0.488604738587985,0.445177875997718,0.393370825510119,0.457304308276106,0.502743533699177,0.424755400456387,0.539324270184905
-910,grasp,12m,FO,0.465726433079288,0.516221010439436,0.533293715535098,0.4347287708314,0.444702022456677,0.465853413677716,0.383600684610463,0.4249249291883,0.479523632126519,0.451924103198004,0.461310661072445,0.408058053635524,0.485178607688033,0.448563803008818,0.389880614836739,0.451725983310687,0.507814796410668,0.425710436948909,0.539195180648787
-900,grasp,12m,FO,0.4656261353719,0.517610010081421,0.529517598595577,0.436306093542348,0.44124690902746,0.464744857970678,0.384413965039452,0.43159381447748,0.470877484451139,0.454662480581426,0.464488055499259,0.407938330459157,0.482007855556669,0.452303150255947,0.386952295077861,0.445760136268775,0.513160567480986,0.42641853011598,0.539172287048407
-890,grasp,12m,FO,0.465644417246868,0.518560779170186,0.525985115575384,0.437607997757566,0.437387595626022,0.462879447261776,0.386289415060743,0.438273567348175,0.463051341589858,0.457592043744408,0.467714094479253,0.408023693582071,0.478932739584888,0.456191021181247,0.384743272911152,0.440446565926088,0.518368697617063,0.426769168195185,0.539047327591859
-880,grasp,12m,FO,0.465800587180643,0.518810908767977,0.522789002536272,0.438766787817997,0.433132504234133,0.460216694077278,0.388887238698587,0.444916100972927,0.455691540153706,0.460919198619213,0.471129878285312,0.408629520404119,0.475793442643629,0.460027742706199,0.383425786647101,0.437501186200637,0.523231094530203,0.426738821181988,0.53852647270474
-870,grasp,12m,FO,0.466096411400373,0.518368822090764,0.520117723950131,0.440383728561482,0.428762140798623,0.456712074305198,0.392097599662092,0.451374169598255,0.448968698256508,0.464819846588955,0.474451621275879,0.409723705920657,0.472057338755236,0.463628058708482,0.383048628168915,0.437656351944643,0.527724290914227,0.426530713968726,0.537816273775789
-860,grasp,12m,FO,0.466388005996222,0.51725741469179,0.51830466612385,0.442302686946801,0.424142573521202,0.452640097922005,0.395303322628991,0.458240324100527,0.443141436177689,0.469061931708969,0.477383419318687,0.411278735350636,0.4673631859206,0.46701591464265,0.383553144496436,0.439740480488446,0.531503319027403,0.425730098136471,0.537279667713801
-850,grasp,12m,FO,0.466513480961275,0.515981079459485,0.517290797527618,0.444601799163247,0.419439081474932,0.44845986795214,0.399314183145209,0.464866580560997,0.43836582020747,0.473545222136269,0.480280064497022,0.41334572362575,0.462012369636019,0.4706271095853,0.384698865289833,0.443655673785622,0.534499585824287,0.42461041297383,0.536458699801842
-840,grasp,12m,FO,0.46637161132544,0.514464996688882,0.517144036982917,0.447445167146067,0.414989703932919,0.444291320058926,0.404642762726764,0.470523120428,0.434876477082587,0.478255610210284,0.484625539024241,0.41630912927302,0.45590281443449,0.474383345683613,0.386471819439349,0.448929524306462,0.536511965165866,0.42303794787304,0.535209233547819
-830,grasp,12m,FO,0.466201724311303,0.51230124766336,0.517826050807656,0.450398407692319,0.410906876517671,0.439708455082128,0.410680249782237,0.475147797816819,0.432611118338986,0.482859209370221,0.491519674274223,0.419343225657489,0.449552166798423,0.477869932615627,0.388621150359179,0.455015768415191,0.537620508648949,0.42112359848185,0.533655591703377
-820,grasp,12m,FO,0.46583565984703,0.509919548025068,0.519217170725173,0.453641566534557,0.407567165492256,0.43447863166155,0.417189280177659,0.478702006554029,0.431328079673611,0.48675379955436,0.499490561777541,0.422474552356051,0.44356024723178,0.481082526717416,0.390671705002645,0.461693563262257,0.537686228396683,0.418939374508017,0.531653770754338
-810,grasp,12m,FO,0.465259480939592,0.507499505362591,0.521222919881936,0.457135751917029,0.404669054267977,0.42956004191579,0.423057052575189,0.480950183101121,0.429953380751088,0.489944020743167,0.507645876506428,0.425387291028071,0.437719874888262,0.484172092033627,0.392619411349488,0.46910468190772,0.536891413161604,0.416988779797887,0.529134591780717
-800,grasp,12m,FO,0.464948283469884,0.504983352231672,0.523798979008982,0.460776170753011,0.401981998000952,0.4257519782365,0.428864564126197,0.481994856902758,0.428728408770465,0.492205847883501,0.515610846236868,0.428105893753862,0.431857053773543,0.48709564135009,0.395061262739443,0.476551008081137,0.535268602105244,0.415504429755598,0.526439620756542
-790,grasp,12m,FO,0.464570960589069,0.502532192723049,0.527057390369601,0.464595799203247,0.399553982522198,0.423631959588067,0.434781301597045,0.482268458090414,0.427602550156941,0.493481526114568,0.522820985415906,0.430779754822778,0.426224203963871,0.489917082657233,0.397778692571749,0.483258476489711,0.532974543318987,0.414701847548117,0.523815423805935
-780,grasp,12m,FO,0.464110902821432,0.500343689054902,0.530599653661416,0.468141378824918,0.397535077169699,0.423212711804122,0.440707895800314,0.481904121774962,0.426507725028309,0.493698715365457,0.528942189069993,0.433087289912706,0.420993802388008,0.492764278001053,0.400960254071266,0.488598657586988,0.530432572512674,0.414610052162314,0.521046109844965
-770,grasp,12m,FO,0.463403616075024,0.49830282390252,0.534587204540074,0.47095545206175,0.396454438545124,0.424665879017377,0.446599407350161,0.480961895887573,0.425346111085849,0.492750412709345,0.534500116543109,0.435475886088348,0.415751916430837,0.495530665039102,0.404562530301539,0.493318663534084,0.527730553163028,0.415429668331057,0.517948151783036
-760,grasp,12m,FO,0.462617231507428,0.496612130671964,0.538981826428071,0.473447265784123,0.395924931365419,0.427663190477696,0.452125264755931,0.479455344829177,0.424151748841359,0.491393495051418,0.53994359565093,0.438019285975948,0.410249570192219,0.497860982878016,0.408301995105874,0.49785469471701,0.524760311634628,0.416856988181856,0.514514972203156
-750,grasp,12m,FO,0.461945727276102,0.495075322069766,0.543307391880605,0.476313172096848,0.39576299026349,0.431549760046721,0.457481051542551,0.477388607102116,0.42282399921771,0.490027393851147,0.545411954539499,0.440633720753005,0.405213937448951,0.499436347756463,0.412059274677551,0.501604953380975,0.521789511074088,0.418909823857899,0.510962933862012
-740,grasp,12m,FO,0.461539353600728,0.493755190201853,0.547798711776322,0.479212832155038,0.396013003986874,0.436138214025245,0.462897833393724,0.474924572460906,0.42138579159825,0.488406112458873,0.550925411822536,0.443134618000876,0.400703862526045,0.500906516014864,0.416179605468308,0.504057103081525,0.518564210308098,0.421704221095622,0.50726312632778
-730,grasp,12m,FO,0.461504126594586,0.492455118568597,0.552361109445563,0.481770973362007,0.396862516302117,0.440862837892506,0.468565631009269,0.472126864376795,0.419812341744997,0.486299372335126,0.556506216360023,0.445549207625569,0.396958925945084,0.502391316298179,0.420557893531143,0.505358810881939,0.515260260057332,0.42546877898606,0.503315828309838
-720,grasp,12m,FO,0.462043485368792,0.490806883338015,0.556954083892726,0.48462289507263,0.398123670838419,0.446243783546313,0.47426028820323,0.469377141311757,0.418207753457048,0.483643257865349,0.561914071647068,0.448145302127303,0.394329873291938,0.503815364324766,0.42527642182036,0.506446857260694,0.511813455285687,0.430149994708622,0.499304164790556
-710,grasp,12m,FO,0.462821408702164,0.489457807096173,0.561436217815753,0.487546065551037,0.399659944838783,0.452251585889462,0.479059571784534,0.467293132455135,0.416942956246442,0.480870970018897,0.566568713334037,0.45088900520161,0.392539613908305,0.505338156759588,0.430887173936606,0.507279442600599,0.508045251544838,0.435597253484213,0.495057363452432
-700,grasp,12m,FO,0.463886912337069,0.488596164934749,0.565811493623652,0.490041807202726,0.401842372257402,0.45833372304799,0.483538222480509,0.465500092242219,0.416530864998153,0.478393189239721,0.570960336294022,0.45361704358858,0.39172206972877,0.507116191393842,0.437128023031666,0.506604146266679,0.503962859657316,0.442024785825221,0.490749803125356
-690,grasp,12m,FO,0.465280490879448,0.48819391291564,0.570092758305363,0.492067648334379,0.404262105048306,0.463890186057718,0.48693781343129,0.464099177174296,0.417134414696885,0.476334826055519,0.575353572306914,0.456452741277265,0.392072901351254,0.508483177189601,0.443592820702269,0.505460914038468,0.499832275931298,0.448847493313843,0.486524165895685
-680,grasp,12m,FO,0.467149899928668,0.487708699202829,0.574200850118007,0.493642050287745,0.406932651956642,0.46883737935601,0.489562868991483,0.462873348433194,0.418834532778961,0.47426201201005,0.579299608022767,0.459348658426603,0.392966586627661,0.509238796916655,0.450024975907824,0.504404548700004,0.495189357060115,0.455416885129464,0.482616243333534
-670,grasp,12m,FO,0.469249278869832,0.486990717012063,0.57773384272892,0.495140287067257,0.409460842045361,0.472941286627521,0.491323008611606,0.461835341202466,0.421485417694298,0.472360432137415,0.582392219880084,0.46217507208451,0.393894948056683,0.509704624382716,0.456431816957735,0.503415224341666,0.490367331730154,0.46123462700249,0.479007116901105
-660,grasp,12m,FO,0.471612622257642,0.48625272720782,0.580728554831925,0.496785638235362,0.411766336702138,0.476013699725948,0.492321039243164,0.461332095730029,0.424959286165092,0.471182566011165,0.585577667902395,0.465005401176908,0.395150548557034,0.509928364747015,0.462391477079823,0.501594674158627,0.485414276236188,0.466008306494209,0.475860199460091
-650,grasp,12m,FO,0.474619835876054,0.48539162872874,0.583408221872183,0.498692270845169,0.414166408751175,0.4777893156183,0.492969832158452,0.461006107285225,0.428940354904807,0.470210374346028,0.589573551474008,0.467821720996056,0.396042518704885,0.510050154102084,0.467407767036158,0.498410505791319,0.480182042820491,0.469429724241839,0.473170168194083
-640,grasp,12m,FO,0.477947678603357,0.484523425965347,0.585681390790903,0.501446512904815,0.416865433436368,0.478572448738989,0.493699892306276,0.460551571569293,0.433685474769534,0.469928785165816,0.59438092768363,0.470315534017793,0.396604414508127,0.510434051604913,0.472174119438974,0.493400053222541,0.474639225743771,0.471765238342127,0.471180825205501
-630,grasp,12m,FO,0.481111330253796,0.483503828270122,0.587428399735178,0.504308945975198,0.419904862248711,0.478791424545372,0.494638670620349,0.460189745511645,0.439305406304155,0.470378421588324,0.599702005221244,0.472390922703731,0.397433231198792,0.510802233452598,0.476631413260826,0.487738098812393,0.469564261986664,0.472889238662269,0.470554185156425
-620,grasp,12m,FO,0.484060575149081,0.482030348509966,0.588485093172262,0.50652642273228,0.422661933830935,0.478579612340766,0.496321937802075,0.459959712303936,0.445619545022674,0.471564210863619,0.605229927851269,0.474147788579471,0.398091243767378,0.510723578738505,0.480740751040342,0.481402533397877,0.464952930933872,0.472609658925151,0.471431825826496
-610,grasp,12m,FO,0.486837460499793,0.480445366187648,0.589313424260027,0.508131662368842,0.425148957197977,0.478028140202733,0.499358909801034,0.459812306119102,0.452387943121508,0.473179864385628,0.61067114027165,0.475557653570867,0.398413566492806,0.510422074428064,0.484600066441839,0.474662269260424,0.461042126376128,0.470909593619539,0.473202583279214
-600,grasp,12m,FO,0.489586767628327,0.478603687695344,0.589682854748033,0.50931674621654,0.427542230683445,0.477150947285697,0.502409551844904,0.459400268028722,0.459566310524396,0.475177186371061,0.615704209921112,0.476597466350413,0.398515317173062,0.509766881184329,0.488436532511947,0.467784374028432,0.457905013351072,0.46831253187878,0.475706199935696
-590,grasp,12m,FO,0.492162966588379,0.476381134057221,0.589498990762181,0.510743688004819,0.430074972854942,0.476403295449355,0.505264935211741,0.458298975495442,0.467100716382712,0.477639089833109,0.620154152080533,0.477471733160912,0.3980514153761,0.508778238123021,0.492475118271444,0.461134669721255,0.455484446212993,0.464941214769173,0.47880215096317
-580,grasp,12m,FO,0.494584211069897,0.47408099249156,0.589057630376884,0.512431532447672,0.433200314531667,0.475502301800329,0.508037906661268,0.457005075768098,0.474581982557445,0.480395031697989,0.623508400630112,0.478252135943207,0.397377313435765,0.507651892301757,0.496664882602386,0.454751084676134,0.453910095349905,0.461152929199834,0.482548368995551
-570,grasp,12m,FO,0.496843140940416,0.471912446487938,0.588476262437016,0.514173638282678,0.436785661793438,0.474739294032589,0.510827961799277,0.455564959694104,0.481695068854869,0.483190328727747,0.625754002922289,0.478879893030702,0.396569762599083,0.506540858104247,0.501017028816495,0.448781398409476,0.453389935453255,0.457328566628236,0.48644084809021
-560,grasp,12m,FO,0.498940937835271,0.470262182077206,0.587410131194164,0.516238819863097,0.44087544239856,0.474095810893488,0.514163722332184,0.453882943981711,0.488241074298329,0.48570549069286,0.627124656329939,0.479348604765921,0.395417152391211,0.505348162857974,0.50567850216348,0.443514881328718,0.452921087956884,0.453771691301311,0.49010208330866
-550,grasp,12m,FO,0.500836777214683,0.468918547361377,0.58537375780342,0.519055191301567,0.445498916718231,0.473802452928787,0.517314913794133,0.452323733429027,0.493874545847737,0.488467789416531,0.62759476803808,0.47964929505861,0.394491112475316,0.504111094306947,0.510400108166939,0.43919100220742,0.453063031583185,0.450332232707296,0.492974643584419
-540,grasp,12m,FO,0.502501840354997,0.46768318211647,0.583065838455967,0.521676151095398,0.450372521338403,0.474517081350671,0.520259888510437,0.45057371952075,0.498708691150179,0.491250284106818,0.627023534959906,0.480174323355263,0.395349271677946,0.502871766424471,0.514725095474621,0.435756296011798,0.454167812586759,0.446932135857791,0.494738091423648
-530,grasp,12m,FO,0.503918615372129,0.466503057157381,0.580255031507396,0.523270145180601,0.455043971298323,0.475849008181852,0.522953260590331,0.448313243206737,0.502580888159351,0.494024183229624,0.625199279225229,0.481014857329105,0.397629952603458,0.502077744699495,0.518471020484947,0.433210157594763,0.455921204411435,0.443385206573505,0.495684524135885
-520,grasp,12m,FO,0.505115681773445,0.46547772286853,0.576882027194946,0.524029960991441,0.459270080508089,0.477887237364278,0.525101104159058,0.446195035595897,0.505613163492549,0.497011363809518,0.622555346957546,0.481744866404191,0.400699881870502,0.501720050238378,0.521497221332619,0.430813628316253,0.458064209436669,0.439821349111649,0.495796424942232
-510,grasp,12m,FO,0.505708175651531,0.464622360050375,0.573057951433235,0.52403300265094,0.463342410223137,0.480853362656413,0.526128087301745,0.444097305960184,0.508185593374746,0.500329174710517,0.619956495576987,0.482392451945422,0.404180504294785,0.50139607108482,0.52366820232577,0.428490515443144,0.460551449322737,0.436494968449136,0.495296872285726
-500,grasp,12m,FO,0.506127481869443,0.463834817589142,0.56907017260166,0.523072993564358,0.467113904246136,0.484360277997309,0.526135144491265,0.44226519200944,0.510227341869101,0.503628073994471,0.617403868585067,0.482842625446797,0.408289259866548,0.501244033588493,0.525278507652741,0.426168538887864,0.463380559775172,0.4333892462885,0.494550757715735
-490,grasp,12m,FO,0.506437897532713,0.46307385948439,0.565261321885623,0.52145288195841,0.470695532209975,0.48825490449299,0.525409191600673,0.440677587666173,0.511624014361269,0.506587672887292,0.614557563816368,0.482929441629283,0.41283279566545,0.501541797465616,0.526562181898953,0.423889448060402,0.466403689387112,0.430841004992503,0.493506199832876
-480,grasp,12m,FO,0.506785911778,0.462705857991052,0.561665890250705,0.519494735935074,0.474211243092907,0.492200059618104,0.523986540035639,0.439492175876103,0.512147503752622,0.509257671189695,0.611478244308009,0.482579342902673,0.417445900243516,0.501890069814165,0.527399507388325,0.421580420633416,0.469386758555002,0.429112997927703,0.491841029675122
-470,grasp,12m,FO,0.506987274698369,0.462694911558086,0.55794636285944,0.516842534571313,0.477664316313914,0.495731997594068,0.522317694969371,0.438884477960957,0.512138827615362,0.511446225880539,0.608347551506396,0.481912421926888,0.422226337664724,0.501919894061568,0.527608481729819,0.419012335275244,0.472599148515461,0.428143873694529,0.489917739546145
-460,grasp,12m,FO,0.507248029666524,0.462952042763295,0.55393029667881,0.513734239482915,0.480899424621205,0.499362821523522,0.520059309742068,0.439021433263131,0.51144570923734,0.512857510307671,0.605413826548864,0.481124884187969,0.427347502296817,0.501641851076495,0.52688382817879,0.415725090727976,0.476425861121732,0.427835809155046,0.48798912542185
-450,grasp,12m,FO,0.50768250684309,0.46345980777064,0.549389740315531,0.510245564196722,0.483874464475323,0.502512738285646,0.517811449303236,0.440288819105223,0.510097283077498,0.513755755238671,0.602685979494966,0.480347007543333,0.432481039555451,0.500790831109186,0.525587155447081,0.412337804431203,0.48086553257846,0.427924161215679,0.486070966741699
-440,grasp,12m,FO,0.508402913132441,0.464408594458681,0.544197090950729,0.506656738879731,0.486738692382121,0.504909590830452,0.515992489940825,0.442177913191288,0.508414925416432,0.514043381214394,0.599898655098329,0.479363542615745,0.43752983444061,0.499882848132959,0.52369787107121,0.4092389411556,0.485142453582989,0.428065299507774,0.484085085252728
-430,grasp,12m,FO,0.50921498928048,0.465742961564248,0.538422571152994,0.502820777319272,0.489138479565138,0.506885577904748,0.514704586735554,0.444907309184284,0.506786068507627,0.513823099652027,0.596829061612334,0.478288348330091,0.442082304876141,0.498614614326202,0.521045592680082,0.406416025195797,0.488623103168689,0.428370754236135,0.481815135178068
-420,grasp,12m,FO,0.510205725473013,0.467580082747544,0.532430062192587,0.499107361466643,0.490802908266988,0.508330848692183,0.514016726642594,0.448578868259553,0.505647614488441,0.51377295925163,0.593602528669607,0.477355183504557,0.446221029995593,0.497156501528916,0.517671589143037,0.404731042531513,0.491811789818806,0.429089015047227,0.479658725662291
-410,grasp,12m,FO,0.511562291239183,0.4697818913161,0.526895418593815,0.495526892424158,0.491542975804115,0.509379748355909,0.514138423478425,0.453239563271542,0.504105975278187,0.513774933586638,0.590667798239712,0.476266089979868,0.449861402672676,0.495566912667411,0.513890342669291,0.404087027611729,0.49469338150437,0.430264110936013,0.477230887963591
-400,grasp,12m,FO,0.513348178493964,0.472373028601214,0.521621600243263,0.491831064727433,0.491664867885799,0.509823305589969,0.515378490619415,0.458269465201009,0.501959783584181,0.513811716324746,0.587742015958228,0.475033195255841,0.45339576822655,0.494073692616086,0.510141676807676,0.404233702805907,0.497166509915281,0.431724538402893,0.474746828802642
-390,grasp,12m,FO,0.515447708351208,0.475378065954228,0.51667796003426,0.48804416437924,0.491339939045203,0.509470741743886,0.517466123580066,0.463301041711489,0.4994142418481,0.513491147243127,0.585188271980062,0.473848227367645,0.456872232617926,0.492267707697964,0.50625105279458,0.404946760157451,0.499173256872238,0.433419618119289,0.472610484264264
-380,grasp,12m,FO,0.517594006561705,0.478488076212975,0.512130139530464,0.484362955588565,0.490733108203046,0.508404738026636,0.519829720900033,0.468170226850243,0.496370331454564,0.512455766593794,0.583166988215908,0.472742031405711,0.460032539001553,0.490747949072887,0.502417955714193,0.406308656429726,0.500716052117889,0.435032748742698,0.470941942105551
-370,grasp,12m,FO,0.519823340907477,0.481662512269417,0.508382011691933,0.480662808087353,0.489787755401242,0.506751833103846,0.522595074089487,0.472694604046539,0.493047175055535,0.511067089628694,0.581673175535175,0.471965453846667,0.462771659965416,0.489331029176398,0.498262803785975,0.408442037457065,0.502049799707607,0.436674972221225,0.469831620623226
-360,grasp,12m,FO,0.5219707813103,0.485037024358311,0.505202176286428,0.47698899464903,0.48859200878674,0.504575072053708,0.525553835646917,0.476322259967709,0.489665750498543,0.509451896569785,0.580661659716319,0.472049504629345,0.465205758359766,0.487780869185014,0.493825000243941,0.411573320050532,0.5031178472391,0.438511626396286,0.469033827971255
-350,grasp,12m,FO,0.52367228173555,0.488519701318297,0.50218808291794,0.473461429700457,0.487159085951125,0.502022787409518,0.528665446118095,0.47920256913548,0.486278977673544,0.507398818298573,0.580639654150305,0.47252537763552,0.467696635613936,0.486163722822656,0.49000649151823,0.415683915819243,0.504012378667862,0.440431225105836,0.468383973402487
-340,grasp,12m,FO,0.525291236774758,0.491807955029593,0.499947846808345,0.469714472492525,0.485454593625789,0.499021872013982,0.531189831762324,0.481610935298865,0.482509694231707,0.505180093781315,0.581589183009236,0.473156761915023,0.470698715697299,0.484673303268653,0.486841657192766,0.41966690018557,0.504830315750521,0.442609966679001,0.4681664810582
-330,grasp,12m,FO,0.526792714814906,0.494818758590334,0.49858029842164,0.465683800331589,0.483539579028749,0.495493295425186,0.532527096038275,0.483383862191366,0.478954092213231,0.50301936793798,0.582911566908632,0.47390602824683,0.474137695665334,0.483270312137578,0.48413032906691,0.423332452176169,0.505992133385391,0.444649921458851,0.469072243697504
-320,grasp,12m,FO,0.527955250035978,0.497493016648369,0.498075382629057,0.461720338288382,0.481644020668772,0.491410633933791,0.533111664752574,0.484363229028758,0.475861559912906,0.500770473354178,0.584427938217188,0.474696759270462,0.477791701465074,0.481712644834878,0.481623164444582,0.426188656394182,0.507316631419507,0.446409849122175,0.470465486595247
-310,grasp,12m,FO,0.528750222850696,0.499693375590756,0.498637591350367,0.458490995824981,0.479722875278733,0.486787966983545,0.533401148598822,0.484485525171805,0.473278391122642,0.498207200396894,0.585962841780499,0.475389510008854,0.48128655054134,0.479723366735979,0.479370017432217,0.429728060368007,0.508493489921538,0.447891759968118,0.47183310403839
-300,grasp,12m,FO,0.529815007895472,0.501742643027978,0.500263557367422,0.455871271269098,0.47813700563682,0.482247159314571,0.533345132791252,0.483848407050201,0.470834465253713,0.495406077416484,0.587324086711853,0.475939735405099,0.484990827951775,0.477527982027556,0.477553361884231,0.433671688475942,0.509428838287637,0.449474751257798,0.473081121700007
-290,grasp,12m,FO,0.530885140947283,0.503742757076998,0.502820862605035,0.453435451508398,0.476870545156271,0.47708037220275,0.532690159112687,0.483536956745327,0.468582587960298,0.49247847201146,0.58834416600241,0.476255996525191,0.488751557226483,0.475203781428154,0.476072990128003,0.438106300809767,0.510170074506076,0.451124621840187,0.474605147362472
-280,grasp,12m,FO,0.532031368707044,0.505402658372977,0.506066636514313,0.451043743099994,0.475774486138609,0.471439712622725,0.530730218598048,0.483538268431406,0.466747335447985,0.489475325295318,0.588734802357265,0.476291884194156,0.492654460910853,0.472813357725486,0.475064254423283,0.442756621305333,0.510572249965586,0.452796810721941,0.476237893660185
-270,grasp,12m,FO,0.532985456446193,0.506344055818284,0.509595570381671,0.448593625010943,0.47509948511595,0.465814030211844,0.527981344527585,0.483559789707678,0.465774124467199,0.486724085735217,0.588391400654525,0.475949126550231,0.4970572172541,0.470423878312995,0.47416130846152,0.447514378279832,0.51085623850281,0.454568971172374,0.477747973433643
-260,grasp,12m,FO,0.533665692844521,0.506790615721138,0.513298173565264,0.446263074765002,0.475211924611396,0.460295815804672,0.524765303113039,0.483377281413731,0.465298897140432,0.484752312608062,0.587430616521,0.4752563782219,0.501990796242686,0.467928083287391,0.473008527518799,0.452463212003547,0.511660983901565,0.455785522105479,0.478883429723145
-250,grasp,12m,FO,0.534285975842992,0.506953211926298,0.517233361590926,0.444200671843392,0.476122123445845,0.454720281143929,0.520814224291764,0.483470685915341,0.465014558359269,0.48354441265309,0.585687123508417,0.473878842991273,0.507038469834812,0.465219616892293,0.471761729874171,0.457121873680889,0.513268274404959,0.45660116584909,0.479661851409818
-240,grasp,12m,FO,0.534849190390282,0.50672083653711,0.520930161447704,0.442373201419467,0.477630383052841,0.449476416607767,0.51600509981762,0.483838671184131,0.464900417263033,0.482814760656886,0.582820051639278,0.471885184683394,0.512128839858677,0.462502162859283,0.470672738640843,0.461431760930051,0.515430030329727,0.457170848282394,0.480288732384573
-230,grasp,12m,FO,0.535143546435312,0.506463569858099,0.524343715830444,0.439767235975207,0.47934510143546,0.444728802593616,0.51014479902916,0.484359280915472,0.464026903730506,0.482439039988952,0.578103385303595,0.469433857402584,0.517320650304995,0.459492701841834,0.469972050895466,0.465617976473443,0.517319719883407,0.457459298353172,0.480572836615537
-220,grasp,12m,FO,0.535047497061999,0.506034234600583,0.527638717099609,0.43714775560715,0.48102758120249,0.440552101112734,0.503413366213443,0.484978947747265,0.462692503234987,0.481897427152053,0.571987499812019,0.466886429472327,0.5215454011719,0.45632063830019,0.469760844252926,0.4699474460787,0.519378856104262,0.457389300906495,0.480518143210687
-210,grasp,12m,FO,0.535032062008511,0.505551410395297,0.530635647142263,0.434124475383326,0.482394453887792,0.436141376279427,0.496047132332504,0.485422845667178,0.460996268071572,0.481514835006489,0.56438814902169,0.464096614154738,0.524746218097478,0.453324757265281,0.469920835199035,0.474507939800323,0.521144786888002,0.45676066590859,0.479768446823963
-200,grasp,12m,FO,0.535235135956136,0.504889149818658,0.533237177434312,0.431020975739341,0.483740412952648,0.431816983624118,0.488219631506235,0.486398695388821,0.458070321859962,0.481244890083105,0.555330219473091,0.46141372655354,0.527130514439318,0.450407116172918,0.470266400696633,0.478676803379736,0.522529851444789,0.455863420538505,0.478793711248292
-190,grasp,12m,FO,0.535602343482806,0.503851778580467,0.535308268155473,0.428106216267192,0.485381373976814,0.427775184168269,0.479629852484883,0.48783095368179,0.454790303815492,0.481278220968673,0.545025396424024,0.458871802854007,0.528651296147004,0.447439119933588,0.470486081687881,0.482046658502895,0.523833388228885,0.45466017232933,0.477499913575486
-180,grasp,12m,FO,0.536138103197147,0.502586952901316,0.538063086101049,0.425349653685325,0.486936667801927,0.424663720080192,0.470456205037105,0.489447749431397,0.451488147039443,0.48147538108515,0.53362686914538,0.456647486201013,0.529254694657899,0.444351885010146,0.470702868897528,0.485503314463906,0.525017611523776,0.453170076426424,0.475623298336036
-170,grasp,12m,FO,0.536691229666198,0.500999926036903,0.541398809791112,0.42312719248862,0.488124858726496,0.422502908800408,0.461130786342183,0.491231299937977,0.448445356646906,0.481888376598349,0.521651824382595,0.4544580554649,0.529089794242658,0.441298647593492,0.470854661360595,0.489618832546546,0.526127089493485,0.451572622633955,0.473269039224224
-160,grasp,12m,FO,0.537367397254729,0.499311143545455,0.544958241652677,0.421898788133354,0.488684830108148,0.420677231409396,0.451783854815418,0.493122425906394,0.445819611953649,0.482757397681612,0.509276947739024,0.452627243241528,0.527990496829644,0.438298716484,0.470939312225151,0.493685300740299,0.527269895129752,0.450053776023041,0.47093838092321
-150,grasp,12m,FO,0.538112199943061,0.497691330019625,0.548558930994235,0.421783343768575,0.488564895372601,0.419014913390429,0.442662466970315,0.495341350636253,0.443677263644753,0.483885874482739,0.496439893884229,0.451055801076496,0.526233773260601,0.435386846118488,0.470923374214367,0.497661832230846,0.528541031154755,0.448383253900088,0.468231195290606
-140,grasp,12m,FO,0.538948534552188,0.4962771941318,0.552163909112262,0.422242244246354,0.487737286590964,0.417977950638731,0.433221286370844,0.497784307936428,0.441604573249647,0.485484699510879,0.483162955722285,0.449592068829274,0.523809475981207,0.432531616496778,0.470524491876035,0.501446732378567,0.530010660806476,0.4465440879115,0.465233013055774
-130,grasp,12m,FO,0.539529951860732,0.494827226501067,0.555592184385458,0.423265909498957,0.485924180475105,0.416922107638545,0.423806219824132,0.499946894518266,0.439680254658328,0.487231382211875,0.469763023890293,0.448257213797843,0.520556942070682,0.429715418056818,0.469284451302331,0.504346174651853,0.53120490070914,0.444675929662021,0.461907352531238
-120,grasp,12m,FO,0.540004521161992,0.493394030667159,0.558867370272253,0.424876014160536,0.483426923640096,0.415778058987952,0.414312095720668,0.501974616201228,0.438259003439674,0.488887728927781,0.457396129657792,0.447001001071383,0.516770982547346,0.426843777794082,0.467272709853485,0.506682411220098,0.532009973677436,0.44279368276735,0.458265158261525
-110,grasp,12m,FO,0.540359377223918,0.492186095558524,0.561890714532235,0.426671700552853,0.480338986241791,0.414699791315587,0.404813139870466,0.504090180214261,0.437597987053069,0.490237184725985,0.44551627208562,0.446114425601573,0.512794632627496,0.424023244357723,0.464674717181581,0.508075193581008,0.533190241647763,0.440876549436928,0.454643044046596
-100,grasp,12m,FO,0.540490553444815,0.491213658284233,0.564225215994966,0.42900563805834,0.47648760834955,0.413852767035986,0.395025750843457,0.506179358895889,0.437195016179143,0.491332643879337,0.433682240793153,0.445727444720809,0.508816162073524,0.421520588615276,0.461673154414378,0.508374447399784,0.534721511261164,0.439244143109039,0.45135241515697
-90,grasp,12m,FO,0.540701246205555,0.490372456980531,0.566308720152167,0.431208257883438,0.471930046900413,0.414169972134951,0.384429933207794,0.508339666022967,0.436598964049446,0.492107175275798,0.42206863167709,0.445462052893468,0.505007218670187,0.419467894592735,0.458862183973634,0.507409982310848,0.535745713099558,0.43789984917379,0.448811983109929
-80,grasp,12m,FO,0.540863292870496,0.489139008952977,0.568468175928619,0.433056956866065,0.467000716573317,0.414596505624622,0.373550246076324,0.510187361273394,0.435490414837518,0.492775274470709,0.410759239368724,0.445059069274001,0.501220854128257,0.417629094762463,0.456348349370194,0.505585019945778,0.536515068503999,0.437022130019729,0.446652733154066
-70,grasp,12m,FO,0.5408882414412,0.487764116248427,0.571100969820195,0.434156241379953,0.46246195661316,0.414974234915855,0.362768931404262,0.511698954470806,0.434452966427052,0.493131764280963,0.400093774334919,0.444471093436235,0.497291517674106,0.415780788368429,0.454042916616666,0.503162541598927,0.536884508096356,0.436550237294799,0.444661810195859
-60,grasp,12m,FO,0.541003161116948,0.486265317711724,0.573780665696887,0.43507634112074,0.45835391851144,0.415816107883128,0.352252212853532,0.512734410611572,0.433442650760141,0.493266154965523,0.390993833812504,0.443871162745829,0.493307266060405,0.4141051696347,0.452176477484492,0.500823175164403,0.537143422610261,0.43660629617281,0.44302328242392
-50,grasp,12m,FO,0.541202018927718,0.484955994540555,0.575877306930568,0.436537995094199,0.453875061712655,0.417058047051527,0.342248655241424,0.513476108074506,0.432314591725065,0.493078976334889,0.383915071245281,0.443039287523169,0.48910325456931,0.413001298114228,0.451163859836646,0.49851532371963,0.537158300943349,0.436914759755141,0.441733902529519
-40,grasp,12m,FO,0.5415521520456,0.483502296445788,0.57693156102424,0.438806497651187,0.449433358572049,0.418370311393427,0.333424116673176,0.513808355530742,0.431947830620059,0.492442089494915,0.378554113945593,0.442275131391613,0.484390453508448,0.412725200544871,0.450710470808793,0.496358399084438,0.536851062942001,0.437650095772816,0.4404723626774
-30,grasp,12m,FO,0.541924283551618,0.482396684944204,0.577468146226034,0.442015587957754,0.445139367558868,0.418876522789542,0.325619990045841,0.513925329815985,0.432533447865374,0.491780814597758,0.374129107158069,0.44151772690362,0.479253389577464,0.413176676776366,0.450447841822268,0.495145131093388,0.536560255096802,0.438680123247336,0.439173383192578
-20,grasp,12m,FO,0.542275794481633,0.481238187650492,0.577304761558097,0.445505033893276,0.441282529807685,0.418879405678504,0.319538993932755,0.514132245266936,0.433823662911588,0.490901006821221,0.370379194593563,0.440731082564828,0.47411103163469,0.413881878038086,0.450223185709006,0.493860392353294,0.536283200382395,0.440131312416295,0.438393594827169
-10,grasp,12m,FO,0.542747981329278,0.480174984315782,0.576080977464537,0.448809825296554,0.437771020354326,0.418975265813537,0.316810550100537,0.514397575288663,0.43585032306444,0.49009580443507,0.368202430575172,0.439941847190602,0.469431759816943,0.41496331966846,0.450112564950962,0.492227342112756,0.53593097691387,0.441573416674652,0.438239446519599
0,grasp,12m,FO,0.543481996437431,0.479249076056809,0.573926864269808,0.451682583993819,0.434520033422533,0.419132605840185,0.31565601772323,0.515393320879947,0.438375263622681,0.490013380553518,0.367128159113757,0.439276034229383,0.465441958772001,0.416252789054103,0.449779183605423,0.490355553974077,0.535614246862265,0.44275643556483,0.438849682943033
10,grasp,12m,FO,0.544656193419021,0.478347348106016,0.570455925623174,0.454545261633234,0.431818850768818,0.41903600001628,0.31566859053019,0.516819047906283,0.441247956664034,0.490839650375344,0.366747920031349,0.438538928615361,0.46215679748359,0.417355957091657,0.44866986522727,0.488256944442179,0.534969737948406,0.443320481031369,0.440099488634629
20,grasp,12m,FO,0.54632317922322,0.4774280884283,0.565261347999534,0.457352877628147,0.429403187057497,0.418639203323656,0.315937064869883,0.518152278535416,0.444409171143044,0.492461720716657,0.367471631191268,0.437622421105281,0.459346342956078,0.418244239481723,0.447069517000865,0.486414140825199,0.534047122804184,0.443333224390326,0.442121736044971
30,grasp,12m,FO,0.548667267328235,0.476714921036923,0.558874558283414,0.460734602803552,0.427108341152636,0.418389183065822,0.316485399377875,0.518852226953969,0.447724177469526,0.494427332170129,0.36924352775789,0.436677260185818,0.456689057641053,0.418788941097608,0.444909279293455,0.484555822897397,0.532737268787641,0.442728980460142,0.444534020078384
40,grasp,12m,FO,0.551516538729354,0.476127052732405,0.551827674203724,0.465325511084043,0.424544383854296,0.418484757816645,0.317004245123496,0.518766064412112,0.450816430642462,0.496625450397289,0.371993615315514,0.435564009673524,0.454260638735867,0.419182601977961,0.442308073955893,0.482397272241271,0.530847939316517,0.441251251839599,0.447334476313591
50,grasp,12m,FO,0.554664067737331,0.475745810771518,0.544495027975686,0.470428662997058,0.421816250796972,0.419156824203615,0.317525836046853,0.518483423749918,0.45346448762276,0.498733974070312,0.375845123427018,0.434417907407392,0.451028332786931,0.419746199452872,0.439373151631218,0.48061320891283,0.528388969015257,0.439197336290358,0.450741465824819
60,grasp,12m,FO,0.557780636222908,0.475489186230682,0.537465916299358,0.475778612029904,0.419335697693886,0.420281494950943,0.317717317620599,0.518186021633715,0.455331491589972,0.500553267641536,0.381351493176313,0.433323368156226,0.447574254425465,0.420340702699467,0.436381759280537,0.479326099750737,0.525155409147202,0.436608183017867,0.454516309428193
70,grasp,12m,FO,0.56064432524983,0.475254707272588,0.531356035554259,0.481747218795401,0.417060471496866,0.422464169895489,0.31770258024634,0.517753971987088,0.456387624726023,0.502180652347184,0.388981236204179,0.432010270129703,0.444233900165309,0.42120994917935,0.433359532284632,0.478761325289354,0.520857476191056,0.432969829493558,0.458455854331669
80,grasp,12m,FO,0.56340438504579,0.474983344323472,0.525890150321315,0.487953936719999,0.415266093239849,0.425668573458015,0.318109615097117,0.517223592235878,0.456262342469232,0.503655787499752,0.397482781247575,0.430530631537836,0.441705846924658,0.422577495524249,0.430108579307658,0.478504965712683,0.516504354847247,0.428602657635153,0.462725007864512
90,grasp,12m,FO,0.565912909421266,0.474336410703017,0.520966336758227,0.494068600408959,0.413927561237439,0.429081676921627,0.318132746099719,0.51674155364814,0.455200610910415,0.505137777220674,0.406674178146073,0.428957572089321,0.440047462252776,0.424105616316322,0.427055694820313,0.477004151945147,0.51273344309274,0.424121125715759,0.467194413337737
100,grasp,12m,FO,0.567871141975126,0.473372724639223,0.516393392957516,0.500073181900834,0.413404994089,0.432427033763542,0.317786643046467,0.516273137958928,0.453684030951099,0.506644119600394,0.416238016089156,0.427411980377063,0.439069591751744,0.425661444672175,0.424383312117418,0.474463411750788,0.508412283769605,0.419290436511384,0.471743570355126
110,grasp,12m,FO,0.568990113307827,0.472239108316547,0.511986924867436,0.505990276822766,0.413486222912758,0.435723495778626,0.317493301930824,0.515608695930917,0.4518522433036,0.508154648413845,0.425919523767595,0.425863792843338,0.438493252525049,0.427194991972676,0.422080150162738,0.471306522095707,0.503972609610887,0.414570982855151,0.476479481155459
120,grasp,12m,FO,0.569548240813924,0.470894584876008,0.506999093152163,0.511782028011111,0.414110121727288,0.439109435500209,0.317124216592166,0.514609886456602,0.448980233017572,0.509365948691141,0.435297240094085,0.424407502752058,0.438140889032909,0.428564145908776,0.420379634759763,0.468197039291059,0.500041130140824,0.410504949465293,0.481693142840413
130,grasp,12m,FO,0.570116999558642,0.469729501195778,0.501392378757937,0.517204132283521,0.415465101784231,0.442734362048561,0.317027259239007,0.513285861834923,0.445492743412074,0.509777356279356,0.44386195530336,0.423346208943926,0.437765198768835,0.429961406667983,0.418897045829098,0.4655361048742,0.496631434913239,0.406423218011557,0.487309595319027
140,grasp,12m,FO,0.570668739325868,0.468865636425524,0.495414026029001,0.521699480158174,0.417320986841601,0.446742101292783,0.317135134709323,0.511837971005001,0.441853802291065,0.509689910573323,0.451396311439349,0.422356905119904,0.437753714977951,0.431515555819193,0.417522600978994,0.463567057127599,0.493486277293852,0.40269585613528,0.492731490746858
150,grasp,12m,FO,0.570919005526316,0.468530117136105,0.489218639128197,0.525023458588086,0.419901332207615,0.451077460631895,0.317624871301656,0.510526797196927,0.438084135803571,0.509365106049415,0.457927049674872,0.421155571036888,0.438293290405098,0.433564714856044,0.415510529022607,0.462164727346568,0.490000777438426,0.399737119619451,0.497813944431944
160,grasp,12m,FO,0.570572546819243,0.468475970215524,0.483388704030393,0.527538846887877,0.422793198387523,0.455687301497605,0.318940972723836,0.508915340445159,0.434642027201515,0.508477430303173,0.463604891763439,0.42010130804541,0.439572649217342,0.435963456646681,0.412938743491379,0.460589290505307,0.485864050307853,0.397790236652132,0.502287833229879
170,grasp,12m,FO,0.569892941139778,0.468907828836658,0.477249666269289,0.528945210107241,0.426053285758459,0.460596133332331,0.321832914715298,0.507087852772879,0.43144722794878,0.506797803429914,0.468721157443924,0.419365435439004,0.441212804778298,0.438261238016839,0.410060635669072,0.4587464855245,0.480907714526811,0.39621389114589,0.506360961937635
180,grasp,12m,FO,0.568944358209715,0.469867818318656,0.471057990171794,0.528885776667064,0.429479782851788,0.466229033011981,0.326463787857447,0.50503346303818,0.428897255844518,0.504520851681995,0.473606715607457,0.418762403381918,0.443338864151706,0.440594682032464,0.407147278096322,0.457533546151552,0.475305978082343,0.394981992926287,0.510152008031104
190,grasp,12m,FO,0.567585853619697,0.470932479108975,0.464889701778693,0.527688730425586,0.432458483904351,0.472302663201833,0.330937522019711,0.502471202233119,0.427520563689362,0.502184533306989,0.478839086518914,0.418214583695367,0.445952761218343,0.443124157073059,0.404917265096353,0.456397940231708,0.469171111262702,0.393818183267616,0.513583101584397
200,grasp,12m,FO,0.565854721846514,0.472435209965051,0.45913966606684,0.525548339015313,0.435425329688985,0.478695673951569,0.334876247096088,0.499779573369786,0.427160047017332,0.499388981190202,0.483194702200013,0.41746179617069,0.448670226153678,0.445591936371623,0.402982095657149,0.455973434917307,0.462598592483882,0.392666671154429,0.516605209832248
210,grasp,12m,FO,0.564101260096535,0.474408776301942,0.454769048602763,0.52239419839043,0.437891605200883,0.485423045891076,0.33801828674649,0.496887469084652,0.427145611262481,0.496427798878815,0.486315921128079,0.416727475412327,0.451251864073237,0.447971811074219,0.40164796905612,0.455953430023015,0.455784260575956,0.391780422244335,0.519136367228386
220,grasp,12m,FO,0.562381089021689,0.476558830670347,0.451014244729743,0.518485609210196,0.440009521453465,0.492423521621787,0.34096255767038,0.49380309555046,0.426955005812872,0.493379096424228,0.489192993064853,0.41597612917875,0.45400814387978,0.450091965157057,0.40042372079152,0.456244865777019,0.448838629119405,0.391301466081225,0.521197110259377
230,grasp,12m,FO,0.560604325694079,0.478956489209663,0.448055139867778,0.51443103067216,0.441453305765677,0.499234443538873,0.344175600105172,0.490783944360882,0.426726459594861,0.490793585885685,0.492663174859917,0.415261643819986,0.456598151513038,0.451784572354326,0.399283420173333,0.456489244976595,0.441757152834009,0.391123394551391,0.522546721508647
240,grasp,12m,FO,0.558905233482931,0.481386422703826,0.445580876451351,0.509925675745054,0.442089154576118,0.50557435195883,0.34731934278711,0.487578743509662,0.426496147729806,0.488721802762785,0.496249019078387,0.414437029292781,0.459001077781536,0.453111864722229,0.398389524169796,0.456581234063756,0.434931422888749,0.390991264872942,0.52322735371065
250,grasp,12m,FO,0.557213523931126,0.483777741671863,0.443284407677933,0.504761432678844,0.442183725396734,0.511408352614626,0.349825249324636,0.484557133490996,0.426357614051287,0.487284554151768,0.499501683810187,0.413645202572009,0.461573722175984,0.454084873741944,0.398271690413232,0.456546189588592,0.428033766087781,0.390405126087003,0.52366860234405
260,grasp,12m,FO,0.555430956321842,0.486006645553783,0.441458696276416,0.499404270644052,0.442336046733341,0.517249568487146,0.352557946920291,0.482283413659633,0.426450557666062,0.486650957383268,0.502188393446708,0.413072341102637,0.464528130836944,0.455039409436706,0.398827415180637,0.456278793682248,0.421559371415177,0.389469041081099,0.523424753522087
270,grasp,12m,FO,0.553455870637424,0.48791795548385,0.440758840553708,0.493969227245748,0.442758830420559,0.522406912972709,0.355588005668701,0.4809288575288,0.426965429242728,0.486422237221285,0.504140884296744,0.412662099057,0.46769371577876,0.456025169148884,0.399870395170394,0.455707172919705,0.415825657603386,0.389042008331689,0.522599358889052
280,grasp,12m,FO,0.551407691903085,0.489453677993348,0.440985092129117,0.48855154750211,0.442859494512001,0.526052694673354,0.358854882673855,0.479669311376881,0.427699003685688,0.486308511680964,0.505163484556115,0.412071390386216,0.471097620752459,0.456868606428548,0.401375914574287,0.454449654098185,0.409920643472174,0.388950141799803,0.52143252355575
290,grasp,12m,FO,0.54907749204123,0.490407711438126,0.441929003954193,0.483285372601798,0.442147913270833,0.528530119520067,0.362616736041731,0.478137980975091,0.428464782505519,0.486410686309795,0.505098795909923,0.411584070843797,0.474664627444982,0.457382687006434,0.403203192110136,0.452383445916976,0.403451187484197,0.388913719064369,0.520319239103692
300,grasp,12m,FO,0.546458256800612,0.490580443213723,0.443002931254955,0.478181887079855,0.441005990173767,0.529731669508255,0.366523332823261,0.476654206908143,0.429404580810396,0.48672631713036,0.503943357392692,0.411115748284312,0.478430672370221,0.457612240667101,0.405420599995966,0.449434612083196,0.396914928424699,0.388959531039239,0.519256200745873
310,grasp,12m,FO,0.543946443488299,0.490108479603347,0.444243669860069,0.473927332820725,0.43998217888958,0.53001039609041,0.37071918884195,0.475132083811699,0.430745531596993,0.48706369967809,0.501532754857658,0.410559208510081,0.48248139558613,0.45753997792235,0.407670469606105,0.445751749914876,0.390954234686621,0.389126882410004,0.518488571292901
320,grasp,12m,FO,0.541356672877534,0.489377072443322,0.445678177005792,0.470376931679568,0.439295494647323,0.53003032302672,0.375272519590499,0.473315374002369,0.432412589038266,0.487337767784786,0.498013312116559,0.410501891468505,0.486449016882032,0.457430952216694,0.409752809238526,0.441290957152211,0.385720944054899,0.389011273602148,0.517947006795838
