Time,Condition,Age,ChannelPair,connect_overtime_LA_EEG_12_P04_CTS_MTH_chanpair_12m.mat,connect_overtime_LA_EEG_12_P05_CTS_MTH_chanpair_12m.mat,connect_overtime_LA_EEG_12_P06_CTS_MTH_chanpair_12m.mat,connect_overtime_LA_EEG_12_P07_CTS_MTH_chanpair_12m.mat,connect_overtime_LA_EEG_12_P08_CTS_MTH_chanpair_12m.mat,connect_overtime_LA_EEG_12_P10_CTS_MTH_chanpair_12m.mat,connect_overtime_LA_EEG_12_P11_CTS_MTH_chanpair_12m.mat,connect_overtime_LA_EEG_12_P16_CTS_MTH_chanpair_12m.mat,connect_overtime_LA_EEG_12_P17_CTS_MTH_chanpair_12m.mat,connect_overtime_LA_EEG_12_P19_CTS_MTH_chanpair_12m.mat,connect_overtime_LA_EEG_12_P20_CTS_MTH_chanpair_12m.mat,connect_overtime_LA_EEG_12_P21_CTS_MTH_chanpair_12m.mat,connect_overtime_LA_EEG_12_P22_CTS_MTH_chanpair_12m.mat,connect_overtime_LA_EEG_12_P23_CTS_MTH_chanpair_12m.mat,connect_overtime_LA_EEG_12_P24_CTS_MTH_chanpair_12m.mat,connect_overtime_LA_EEG_12_P25_CTS_MTH_chanpair_12m.mat,connect_overtime_LA_EEG_12_P26_CTS_MTH_chanpair_12m.mat,connect_overtime_LA_EEG_12_P27_CTS_MTH_chanpair_12m.mat,connect_overtime_LA_EEG_12_P28_CTS_MTH_chanpair_12m.mat
-1000,cane,12m,FO,0.465943014281193,0.511283340433367,0.355504401562899,0.504997408722072,0.443139859863128,0.422424235781775,0.59795157732071,0.47233014068553,0.470106128117239,0.469523759584901,0.495244321594881,0.411649950727785,0.457930421973608,0.436835719124589,0.419620724975883,0.518062207822547,0.465361640795346,0.466921962482229,0.492979847597922
-990,cane,12m,FO,0.469692409616477,0.519657820488754,0.352220872992336,0.50797213661353,0.450036764248417,0.4148122151232,0.608021332466413,0.479787193115244,0.481719614438287,0.466907464332898,0.503884770923582,0.418420113424266,0.460253695242896,0.437609631946326,0.408290979231069,0.514609973136595,0.447828580902854,0.473091621452944,0.478359818437729
-980,cane,12m,FO,0.474859159984924,0.524717028768539,0.350431731004895,0.504814941666906,0.457105571999742,0.405665680211873,0.615183816578984,0.484942422157366,0.486778620043813,0.466237544351917,0.512206640087189,0.424416021605618,0.466488721285026,0.44032868194417,0.397207536814066,0.509887941419475,0.435182730129089,0.474528032207148,0.463792779245064
-970,cane,12m,FO,0.478535866771873,0.526235634070171,0.351933973179222,0.498596899463989,0.464979491943339,0.39591603634143,0.619161468972346,0.487266025353031,0.485815980286013,0.464415438526427,0.514830392120833,0.431139751208171,0.475394210086024,0.442935533824849,0.389943285301364,0.504878081574344,0.429105393044701,0.474037432519473,0.451377251059222
-960,cane,12m,FO,0.479422199466753,0.524551933330747,0.353895448302104,0.492221251284238,0.470171385478882,0.389338126872629,0.618275596593074,0.488044921307022,0.479355289721175,0.461086368704162,0.510539231177067,0.438185749029775,0.489503321198685,0.445549106721409,0.388115789958617,0.498885836278183,0.43055722172948,0.474537098732135,0.441304737482269
-950,cane,12m,FO,0.479299643063887,0.521663361117181,0.358925754668963,0.484251080440207,0.470007153901155,0.386478242538291,0.614418148543095,0.486425455242219,0.468080888546496,0.458736966925231,0.506207503123854,0.44316887274329,0.506750441716495,0.446373125676415,0.388485409245148,0.492033076229091,0.435272959076741,0.476821214798597,0.43530149756567
-940,cane,12m,FO,0.478228111083486,0.516917910227297,0.370668603298725,0.472388039989033,0.467653310028153,0.387341450404916,0.609995141311236,0.482006769659037,0.453722149331296,0.457626609403021,0.502414753157326,0.445432837305016,0.524158879611963,0.447847220287544,0.392152665751644,0.483887234766445,0.441082788331607,0.481455451719483,0.431900900401456
-930,cane,12m,FO,0.475158619918291,0.510105637775453,0.390933796246544,0.460146619476448,0.464264940874288,0.389768138867923,0.605389667512688,0.475451817173488,0.43377682870207,0.456442191122139,0.496640028834731,0.44721986675144,0.536492383197997,0.450017883614235,0.399319503818095,0.474756279710435,0.446377622854174,0.485708326659747,0.42879223156985
-920,cane,12m,FO,0.470763707657886,0.502033203767,0.413459655090069,0.448877576903974,0.460078974969144,0.391530563547565,0.601770182126977,0.470985208124201,0.410497089805867,0.457516349303292,0.489751074762149,0.448987442267338,0.54169337912111,0.450941570905147,0.409349421896782,0.467267715424456,0.452714822293465,0.488771339933516,0.423967685782281
-910,cane,12m,FO,0.464605456713208,0.492218541596879,0.435682049208167,0.439406323771275,0.455744681761396,0.393369628081086,0.59919421531243,0.470051585658294,0.391617736259078,0.45986852314519,0.482978788806086,0.451164258059583,0.541194353369554,0.451203159007365,0.425321457495867,0.464441305066016,0.461896146732619,0.491897003850065,0.418740247058171
-900,cane,12m,FO,0.457439988306417,0.480678639516045,0.456956068996235,0.436054804522359,0.451926799942971,0.397114565867524,0.596316626269364,0.47124515121586,0.37500837735518,0.464742095419056,0.476983777163514,0.453675404990414,0.53491704036176,0.450650551988445,0.44436760294442,0.469897459918026,0.473822475127095,0.496306669593396,0.41409726866364
-890,cane,12m,FO,0.44934110808248,0.467671413272217,0.47680005857895,0.437656940167461,0.448669420081986,0.401553041528073,0.595270681595002,0.47319106808912,0.36629425898402,0.470539409015954,0.469267233628566,0.455628927279002,0.527101093420529,0.449015462481318,0.46529093612857,0.484278420393345,0.488668003805462,0.502935635236912,0.413076019332545
-880,cane,12m,FO,0.440579218749134,0.454680988801764,0.492910159346862,0.441486196470186,0.445780111951503,0.40494959945262,0.597285863935857,0.474556552115379,0.363950635873063,0.476004375337934,0.463252420907137,0.456734184668398,0.521450076793094,0.445179708514248,0.486867919109866,0.502399229228899,0.505720225195295,0.511085126654479,0.414589642717234
-870,cane,12m,FO,0.433834275092819,0.444653806889552,0.501137529366341,0.446723611827974,0.44444820258172,0.408722696458837,0.596911974780894,0.475092208462166,0.364148424606892,0.481827490956018,0.459328384557466,0.457257024236024,0.517366930861046,0.439310879693484,0.50695690276659,0.516720953692614,0.521616546521934,0.518881424749419,0.420792412030855
-860,cane,12m,FO,0.431588469890303,0.438051565659725,0.500522446761544,0.453894697411603,0.44206027082255,0.413895903814839,0.593982393756107,0.475996891516221,0.363290635073604,0.485963951828748,0.453047982133794,0.458631219246977,0.512550154664073,0.431454388645824,0.524600012194948,0.524791246950993,0.534898363576917,0.525581129263589,0.431205323368406
-850,cane,12m,FO,0.432671699749812,0.433831425257637,0.495687809462937,0.461156948717929,0.437148249470044,0.419074173592916,0.5897595718091,0.476297744764432,0.361832141289734,0.488064470718463,0.444067771112224,0.461376751195779,0.5093586535784,0.425762308742191,0.538839371918948,0.528311851953358,0.54774643429633,0.528697885642224,0.444413570907766
-840,cane,12m,FO,0.436502508179752,0.433505028648774,0.486739387582456,0.467758383874907,0.433196540459915,0.42579586948539,0.582907678733425,0.478534879204042,0.360527855299719,0.493033473007408,0.433230307753204,0.464871320056777,0.508959349703615,0.423653644244438,0.549040138213676,0.528717161078573,0.561235390459446,0.530422696316401,0.457884474254278
-830,cane,12m,FO,0.441131753849198,0.438412587515025,0.477328672687984,0.475658617804025,0.431803727151374,0.43264294367321,0.576452609463315,0.482687371577992,0.362810607209261,0.501571641739084,0.422996041598641,0.46929870652709,0.512034373673647,0.427842741791002,0.554726511990246,0.527476303427729,0.570867046865117,0.532568323659705,0.468660684135612
-820,cane,12m,FO,0.445043181067535,0.446783880846172,0.466478827253836,0.489551638224412,0.430833818225917,0.437382732576206,0.569526494512435,0.486916793260493,0.370154313181547,0.512402813273503,0.413996626002017,0.473400815280077,0.516009258488511,0.435986456527477,0.556128957125306,0.523511449026552,0.574494428986899,0.535424403846261,0.475784351774425
-810,cane,12m,FO,0.445504806001103,0.457260716362058,0.449319495278305,0.512958069153893,0.428912608363532,0.442140959442154,0.560327760017344,0.490622514927717,0.376439918188859,0.525497207810507,0.408475636611242,0.47676563180543,0.518329666824071,0.445440121376937,0.553307039185245,0.517484491664057,0.57091137505685,0.538055466886759,0.47810557690409
-800,cane,12m,FO,0.443839931260802,0.467744611556656,0.428615336329393,0.539424054243227,0.423653068062786,0.450535478127075,0.551241659215654,0.494692873781623,0.382488803863507,0.539991893897144,0.411572697499011,0.480394402861125,0.522405853991589,0.455225624566496,0.547710589647963,0.513079673488135,0.564584727915134,0.539760662120581,0.477067548805996
-790,cane,12m,FO,0.44009929502719,0.47783771124244,0.407514808977957,0.562402075937197,0.416039905829532,0.460883030343358,0.541169682862651,0.501040078607437,0.388839982036422,0.551637584383363,0.422966446368767,0.486458107332056,0.527888111209499,0.463055546601647,0.542411518433977,0.513441166230379,0.559174645315934,0.539025930755316,0.476134763896426
-780,cane,12m,FO,0.435285903960937,0.487940891349607,0.388226143068597,0.57604494784392,0.408186644252469,0.470821695497502,0.528195094563688,0.507923092179123,0.392793629786614,0.559628543069396,0.440236685201777,0.494302105141553,0.529294304068346,0.467741282596582,0.53803459237243,0.515961657198317,0.555090571079291,0.53592484429612,0.476466581858496
-770,cane,12m,FO,0.431426106212482,0.497105139840473,0.374475006500711,0.578186416032686,0.404769770737982,0.476751778987122,0.511946316671644,0.513174366980758,0.397423742300315,0.562672195690276,0.458137915977542,0.502879042730874,0.52480930086819,0.469877513318432,0.533063919423764,0.515918054902659,0.549622032631589,0.530758605977118,0.479791647335413
-760,cane,12m,FO,0.430431636301088,0.504944442474784,0.368563140167026,0.569908432884853,0.405049032739596,0.478051224211665,0.493927457491279,0.516529239934004,0.40378798987092,0.562707782248894,0.474670539333362,0.509149110340544,0.519926658126523,0.469677573338657,0.525447442922969,0.515138623908799,0.543950383494075,0.523313239774748,0.488275025779191
-750,cane,12m,FO,0.430872511178035,0.509291762434914,0.373985234008482,0.553991108255496,0.406865515151815,0.478837590759915,0.474925208111133,0.519361038200137,0.413403565092498,0.560497578965966,0.484413115427423,0.512294476495724,0.515099365798705,0.468025378781692,0.515141018327142,0.511657242165162,0.538393151967352,0.513423644131936,0.502856982466341
-740,cane,12m,FO,0.432796001232086,0.509420200360702,0.383287885287043,0.532131343546241,0.41149500706689,0.4765624439376,0.457786876750612,0.523426030629615,0.424766660151121,0.558890426234275,0.486685316082009,0.514096509940261,0.509313165767964,0.465101637671067,0.505163081436254,0.507148826558758,0.531326474465759,0.503218299056683,0.522322105190045
-730,cane,12m,FO,0.433697323435687,0.506350232552471,0.392165036064838,0.509119605830158,0.419303649623279,0.472831399813172,0.444682354993163,0.528375557251509,0.435150876879697,0.558676132052763,0.484027471371583,0.515300550431416,0.502552171734646,0.461861004838038,0.49569478769816,0.504813334302155,0.52195442267546,0.494046955529684,0.540723662009862
-720,cane,12m,FO,0.43460749366465,0.50423876516748,0.404403049529832,0.488289121136726,0.431331472039948,0.466817990412897,0.435510943038225,0.535489461522495,0.446027560994589,0.558930416594675,0.475998432378897,0.515319343715531,0.496371761751924,0.458369323119594,0.484796490994039,0.50261520998898,0.510473107363365,0.487408760776869,0.556207310102279
-710,cane,12m,FO,0.43878192503776,0.506575624188802,0.422382629091577,0.471479572083944,0.445736429942717,0.460716843418529,0.427758524561743,0.544102922140508,0.454560844880755,0.558587231511811,0.464123547008583,0.515737491809922,0.494663391081747,0.453891422620743,0.472289779122875,0.502165902634626,0.499187944193157,0.482026734076892,0.56730865161251
-700,cane,12m,FO,0.44687551082706,0.512113327660626,0.443721898838719,0.456693229063943,0.459561960893426,0.455329693476648,0.419990951240193,0.550875745899168,0.459567864157539,0.558758806000586,0.45108249002142,0.517210271087203,0.497417634849411,0.44982000822103,0.458962239122296,0.502068841843053,0.489443464547247,0.478613187214227,0.57168605493916
-690,cane,12m,FO,0.456852419442408,0.518351202813353,0.459185404931215,0.445907346290503,0.472439436846943,0.45224416651604,0.410954384810912,0.554125940064932,0.463623987418236,0.560699622639602,0.440533495856046,0.519622652891806,0.503756351603577,0.447942130893575,0.447479827964644,0.503707924647788,0.479497420603586,0.477514769043156,0.570071630389954
-680,cane,12m,FO,0.46444288132504,0.523817404409541,0.466540299525275,0.438224960548708,0.483721782479892,0.451088782627383,0.403249206931087,0.556066442183482,0.469358275734095,0.561272536023202,0.434860195361331,0.520602007989115,0.51180176404834,0.448813950809471,0.439054447043173,0.506358723131435,0.470100602851979,0.477451423578644,0.562724312693712
-670,cane,12m,FO,0.467564371503846,0.530659994472079,0.463555996759781,0.430946185475247,0.491661078252267,0.450254456139533,0.397158992415295,0.557055080921235,0.475405433694831,0.558806174531678,0.432867914321297,0.519500779605803,0.51849133870078,0.451957336617128,0.433312685389109,0.508305396191197,0.461888489465339,0.479276839888565,0.551551883500929
-660,cane,12m,FO,0.467299586580799,0.540526546332878,0.45048422255755,0.423665787944333,0.49794809718585,0.450847903131979,0.394783885196944,0.555588177593228,0.478004233278755,0.555240376628247,0.432631925375915,0.518591827659697,0.524122745735825,0.453736901944176,0.427720194017179,0.510151933900774,0.455286973343995,0.480925648078185,0.539543662108219
-650,cane,12m,FO,0.464993809062779,0.55091313491704,0.433916167101037,0.41569286470138,0.503746732411385,0.452684455096813,0.397612467760137,0.551651889034875,0.475524734947185,0.55191860560699,0.431381740818745,0.519351485930067,0.526250236286145,0.455248454374319,0.422041098234618,0.511377664137114,0.450981167782499,0.481298605781234,0.527090999721147
-640,cane,12m,FO,0.460062358937668,0.56026626797258,0.420721138501983,0.407502306539976,0.508110545170442,0.45306848373389,0.405494228409561,0.547156701504944,0.464952766343943,0.548537206963592,0.428685343884543,0.521068713707386,0.523896887281877,0.456855574443909,0.417358142258399,0.511934765999323,0.449135274424287,0.479900275611588,0.514468013003605
-630,cane,12m,FO,0.451648912602321,0.568095146122714,0.410441430886269,0.395185818804355,0.511650005644239,0.451006323561028,0.412539168790375,0.542626823886341,0.445800027439803,0.546985271544849,0.428121320347395,0.522866327758891,0.520835153662464,0.455416990913631,0.415106277629056,0.513726134858368,0.450379271729529,0.477440587849411,0.503896983883324
-620,cane,12m,FO,0.441428966725066,0.575581491566037,0.404493916485143,0.382185828233958,0.513191039730374,0.448286165354496,0.414458231958202,0.537533991939022,0.426014157891354,0.548057421049687,0.434365871738458,0.522505757522376,0.51843845034845,0.451580359995052,0.415661244606268,0.519103762705032,0.452879375828029,0.476620256068058,0.494569575015193
-610,cane,12m,FO,0.431484640483342,0.581748915648959,0.405804312649963,0.373808436689346,0.51007483138504,0.447056288606933,0.411740674997026,0.531024836942943,0.407546933015416,0.549088954607588,0.445215661444563,0.52154245473095,0.513932728428508,0.447898373491091,0.417934022098691,0.529086034468919,0.461114595161486,0.477849102886096,0.486152477169242
-600,cane,12m,FO,0.422956712340329,0.585236142101837,0.410985362263836,0.372605389299016,0.503003303793799,0.444982262228638,0.407248827406442,0.522462893649167,0.388004773446049,0.548683542977428,0.458845480457939,0.522127584123902,0.50897904040845,0.444407085128008,0.422423955958438,0.542935139574229,0.471321418421101,0.478743840055639,0.476355397437203
-590,cane,12m,FO,0.41733439796117,0.583668789951588,0.417557550743115,0.374252702914016,0.496676436205035,0.443995743973251,0.400441336776167,0.512971579664515,0.368681602765677,0.544336764726463,0.475606454623602,0.523308762394027,0.504122936219123,0.441626571099621,0.430603989935337,0.555497992336214,0.47866416171862,0.477732210399083,0.468476904492798
-580,cane,12m,FO,0.415565944450717,0.576597400091436,0.423765525123049,0.374839132953309,0.49247621710071,0.444788997544807,0.393877263994122,0.503339988308013,0.352726795076578,0.540640923723341,0.492668488289385,0.523715041691034,0.499802159979423,0.441636534891008,0.440224313615074,0.563425355876686,0.48520894638078,0.474976316494118,0.464650556566569
-570,cane,12m,FO,0.415481758579678,0.562952837636171,0.42839533309997,0.37669747579226,0.488401862330816,0.448086945912358,0.389027376655791,0.494302014033819,0.338849900312544,0.53773800385951,0.50572176157191,0.523057197263354,0.496623143188547,0.444504429932357,0.448711813174984,0.568051911510088,0.493200220205287,0.471634574742883,0.464086582894922
-560,cane,12m,FO,0.415001423781398,0.544405065599916,0.428125740506005,0.381405793858831,0.482985756700517,0.45321603003677,0.385344335742827,0.485416192794533,0.33246577588369,0.536390950007993,0.512861471951993,0.520564505927921,0.494294240184113,0.450481626957941,0.453658358950366,0.569697412552702,0.501422949588962,0.468152392011442,0.467084228105195
-550,cane,12m,FO,0.414002980058821,0.521448271747429,0.421084202104812,0.387660717952451,0.477544976029018,0.461167849437664,0.380878853448421,0.478765520680379,0.327394672896267,0.537666077838188,0.516804661039123,0.516396049435903,0.490060825130668,0.458985699745016,0.458550818603333,0.564895632228785,0.50908840436218,0.466357257488763,0.469796730499595
-540,cane,12m,FO,0.412770202368002,0.498207247242509,0.410903775488394,0.396068889118668,0.474121221868117,0.473024052178157,0.376250147068596,0.473556238472488,0.321708368148996,0.538984043742316,0.516865105141958,0.511492000948476,0.483302376947227,0.470006806643053,0.464406242605858,0.555479361356238,0.518237338658481,0.466417688961211,0.467846514674561
-530,cane,12m,FO,0.410382120769161,0.479822390199848,0.401714230274961,0.405410382284793,0.471099693046792,0.48788169355136,0.373999826357374,0.469583790417586,0.317320815111121,0.534510682506741,0.512838557372403,0.505886648615242,0.477161577296408,0.482280672509888,0.472310167703618,0.539722049586225,0.527886178840528,0.46952179996258,0.464324334093178
-520,cane,12m,FO,0.409207466038368,0.469962663128114,0.394739422029035,0.417319279149779,0.46798798168641,0.502096477397713,0.376187715181895,0.468216185474082,0.317538795908842,0.522842208941045,0.503683976507039,0.499936835109443,0.472831297086741,0.492404394589534,0.481989556784788,0.524024315417121,0.535678635867815,0.474981534308324,0.45926397136632
-510,cane,12m,FO,0.412491109228871,0.469564990342537,0.395487117452336,0.433589255538461,0.463400773193535,0.514405361641042,0.3852895185227,0.469411737408788,0.320534342700929,0.508224400590952,0.493092222229845,0.493779916759098,0.470873093241591,0.500317536515102,0.492457061924789,0.508458216574461,0.54131943693384,0.482620239556859,0.451615694227934
-500,cane,12m,FO,0.419759191528478,0.47136299963736,0.403729301847332,0.452024479878215,0.45821566547755,0.526567121280335,0.398496711732207,0.470961024038633,0.325052551516831,0.494778148185778,0.48061683911703,0.488241295260212,0.469871885893886,0.506061649899418,0.50081124792467,0.494571348622963,0.543604467574962,0.490806591435651,0.446260372623365
-490,cane,12m,FO,0.428876391692192,0.468103603483442,0.415160968963115,0.470009787009099,0.450108176579251,0.53916712056798,0.415352126350364,0.468697557809889,0.331052056576689,0.487251853311119,0.467709990690124,0.483621285225289,0.468115578031112,0.511827921489646,0.506229486164501,0.483180271537039,0.542723030629772,0.497122671639052,0.446575152177267
-480,cane,12m,FO,0.437748133319557,0.461222540866526,0.426682268107538,0.48584585656161,0.439403043806236,0.548187156441209,0.431050904381964,0.46257524405464,0.338465795150531,0.486706822796708,0.454873354536358,0.478264952364802,0.465774489114507,0.518207562112247,0.507730601305393,0.474111048697572,0.539429957266573,0.50177944222758,0.454029475527531
-470,cane,12m,FO,0.445952709553034,0.454410113004288,0.437902359167084,0.499371504274214,0.43017754973244,0.550896749734643,0.443466922089064,0.455055033595718,0.34355404072809,0.489292564152448,0.444282015465797,0.469536091029656,0.463730760751551,0.52205273465549,0.506488294070179,0.464622205655435,0.536222037069728,0.506145383944615,0.465884645358818
-460,cane,12m,FO,0.452531229330582,0.450820662937809,0.452892776944253,0.510357133536242,0.427228034108306,0.548724649682758,0.453585223994588,0.445563326552749,0.348192298868734,0.493466936506152,0.439084270473036,0.459584109110132,0.461890126450433,0.523200856721603,0.504130248928949,0.452595508067061,0.532704375119945,0.509846067498815,0.480311719611378
-450,cane,12m,FO,0.456285799428047,0.450501552183957,0.474228071314029,0.520214580709147,0.429588967797854,0.543150357836456,0.459672781611178,0.43609637054839,0.354334376775615,0.497574049257104,0.440646746439394,0.449640460690145,0.460285016671171,0.523142687385653,0.502452364498433,0.436427020848634,0.527218394671767,0.513630950447516,0.496775125460084
-440,cane,12m,FO,0.45797793893802,0.453507350202011,0.497462615610165,0.529313443871433,0.433381047868719,0.53840796845451,0.462433393024546,0.429083715883324,0.361734781213198,0.499622534909731,0.444082091370362,0.44047412396557,0.45932303462539,0.522517762351279,0.500267115915297,0.418360030141251,0.520495308910029,0.517819861312727,0.511537180449442
-430,cane,12m,FO,0.459468559109702,0.459607094567322,0.51482471064339,0.535985351006995,0.435523209836921,0.536001256039306,0.462700261426725,0.429428217926924,0.367994892209701,0.497830556717167,0.447866964458075,0.433676093331219,0.464023231208983,0.520041906189935,0.498676093536069,0.403984130196654,0.513906736964151,0.52322913931954,0.52311492762506
-420,cane,12m,FO,0.460570046370112,0.468171655627952,0.526197720879442,0.537675184076556,0.436240675127512,0.536073097963068,0.462280450079427,0.434664079641731,0.370988682886198,0.491731620744049,0.452787369910125,0.429491070767199,0.473363575664654,0.516041957105394,0.497860012471131,0.394965881526104,0.509391259564821,0.529719477301543,0.532193739260412
-410,cane,12m,FO,0.461450426266138,0.480298504964576,0.52933093972601,0.536384097714538,0.440043065106739,0.535921772436381,0.460634761116705,0.443229627066408,0.370597034135048,0.484540321687437,0.456400788339994,0.426264757365695,0.484480187395583,0.512036216284779,0.498951927983688,0.38882833089252,0.505307142717104,0.537512478094574,0.538283557266373
-400,cane,12m,FO,0.463399823399303,0.490484491067496,0.522717354366306,0.533723916608315,0.446328736760394,0.537196074767859,0.461626149566738,0.452451965053131,0.369692180938355,0.47913402493017,0.459610294462414,0.423529345304355,0.494212129781341,0.509146007910065,0.501264688872507,0.387145082838134,0.50178368448591,0.544342430921954,0.540936546904278
-390,cane,12m,FO,0.465613724982404,0.4970525903782,0.50872029682595,0.528249229866874,0.452512841103957,0.541043171883481,0.468705733131346,0.459808021647051,0.36935759936239,0.475968256571758,0.467612236632756,0.421811946604628,0.500422619447354,0.50725159403899,0.503002932089752,0.391442852874281,0.495093346526976,0.548412859002269,0.541034437926959
-380,cane,12m,FO,0.468547572882362,0.500084471069738,0.48783113833971,0.519825773143025,0.457400628725822,0.545230555993611,0.478845427454137,0.46446203468919,0.370740108306357,0.474766762969074,0.476167285092091,0.420892334866553,0.503107267051095,0.504788667374647,0.506906527528586,0.398631678034367,0.48306819749045,0.550860515217033,0.539757291260965
-370,cane,12m,FO,0.473475487207168,0.502077101801472,0.461620841501906,0.510814072913096,0.45921613602629,0.545353460773409,0.48847747457506,0.468759869241356,0.373200355271033,0.475358306544225,0.481309923627024,0.419337913636095,0.503075092466046,0.501317382406651,0.512405558217589,0.405704804551479,0.468075374269976,0.551323423955809,0.539285952586435
-360,cane,12m,FO,0.480868769403346,0.503308468483092,0.433705323147917,0.501201580450775,0.458565715650373,0.542129599203376,0.494739899686121,0.472818663403451,0.377230338218452,0.4785824030559,0.482768245135734,0.417420004898426,0.500372458670868,0.499077980118484,0.517269848895002,0.413288446704547,0.452570076464638,0.548815171077949,0.53849528092659
-350,cane,12m,FO,0.489931825206662,0.501608645074447,0.408613422416485,0.494273386277501,0.455559529734605,0.537768391920419,0.495757223816656,0.477037094286867,0.381067245116899,0.485089646157503,0.482930308983256,0.414401056559086,0.492758532122747,0.497487280423284,0.520169379728728,0.419036520624575,0.439714638815609,0.54430605815632,0.537043508909231
-340,cane,12m,FO,0.496993903885202,0.49530167932304,0.392207001688575,0.490726521504592,0.453038564180251,0.534356425717078,0.49101165884993,0.479852282561171,0.383515443267589,0.491819073355891,0.485219685920762,0.410434173963937,0.484114382361949,0.493878991986291,0.518430482606378,0.427280675418996,0.429491288466628,0.536674408426067,0.534241451398234
-330,cane,12m,FO,0.501697909590925,0.488936504489737,0.380579789427463,0.489876232869522,0.450223170645253,0.530556184721545,0.482286220635842,0.481012330250426,0.389052404623407,0.497737664910556,0.48856910172667,0.408431677738839,0.478728587680606,0.488020052122841,0.511567938159871,0.436607870931118,0.423977076182609,0.525709223169279,0.529466254520285
-320,cane,12m,FO,0.503533472586808,0.483581633725334,0.376693196775031,0.488523153773852,0.447132698426786,0.52914857887312,0.475584713237652,0.478042259959347,0.398375700370137,0.500811824317856,0.488785614735754,0.408940093893336,0.478003443572852,0.480899037105505,0.505269620937247,0.442339490066382,0.42282374944492,0.513863191768808,0.523116795125218
-310,cane,12m,FO,0.502245151834627,0.478507766138887,0.37798065640221,0.484399734587599,0.446150710240301,0.531377036330014,0.470683828347466,0.473195562310181,0.408252983055589,0.499923718070317,0.486932646921782,0.408763462191407,0.481344481400001,0.475770735799549,0.503135718598674,0.441582127439299,0.422932592422072,0.502642693077636,0.516420509460041
-300,cane,12m,FO,0.499080150242994,0.475264137852868,0.387350657993712,0.476636037661822,0.447983116344499,0.535806097965139,0.466989613202501,0.46871899543227,0.411163574661406,0.49640102736373,0.484545227531314,0.406875111491222,0.486331304179501,0.471737439920502,0.505098511758902,0.439861978785838,0.42480629028779,0.493148855159723,0.510274464917088
-290,cane,12m,FO,0.494648609066453,0.471863474829582,0.398747875454942,0.466490572795159,0.452150488174956,0.541888663574706,0.463380248951595,0.465639070052715,0.408876232076379,0.491435455778444,0.482314549999969,0.407131634569815,0.489704441865396,0.469766261173933,0.509653183567543,0.441611454279225,0.429620642229157,0.484228875204401,0.504578612300996
-280,cane,12m,FO,0.491854187190341,0.46948727807434,0.410810432884922,0.45669844055729,0.458384926560913,0.546971024061767,0.460142868878221,0.465007157749771,0.402834167947995,0.485104631343339,0.478942506198617,0.409193381556853,0.488029118916583,0.470240186059925,0.515098275034046,0.445403066235371,0.434709597638975,0.475438002564794,0.500242100161371
-270,cane,12m,FO,0.493163383461657,0.467114522312315,0.425101046023914,0.446102982433269,0.463313836017063,0.549308892425922,0.458414288938644,0.467028790071651,0.40079685221206,0.479371423928254,0.474465843780537,0.412112568553269,0.481020573186883,0.4715793008345,0.522023996131452,0.451178490745658,0.439032184173671,0.468466280258366,0.497989344728929
-260,cane,12m,FO,0.496895522062806,0.463751620178151,0.44307017300867,0.436354280710451,0.46703376793954,0.552018915947014,0.459337036997692,0.470477000855445,0.403572900719586,0.473908294070014,0.471631856861036,0.417646051950063,0.471615202601373,0.471578309778151,0.53096880040219,0.458044687394505,0.438510857683194,0.462986852182871,0.498528225666363
-250,cane,12m,FO,0.500442128908218,0.463017292826599,0.463345194918453,0.427495348910825,0.469500183922849,0.553774308864599,0.45768548157992,0.47532803835232,0.410023661467667,0.468999346313763,0.471522941454658,0.425151614741865,0.462136840541167,0.470615032089646,0.540282914624545,0.463831267624958,0.435944948757072,0.459148204652916,0.502126469500988
-240,cane,12m,FO,0.50420736100112,0.466098156062333,0.480225030787985,0.419714289177752,0.47018280291198,0.553993915478935,0.455633338750265,0.480401816061603,0.417572638760089,0.463937129597721,0.469505836574114,0.433077976594538,0.455169973158555,0.471034812118327,0.548757312281088,0.465433994224457,0.431991104914468,0.455521323092663,0.506966046321302
-230,cane,12m,FO,0.506535118096004,0.469405972203225,0.495916257782538,0.416830359187548,0.470345310524626,0.55334326215828,0.454921604460928,0.482497776470549,0.424856111321003,0.46006001809505,0.464510876167858,0.442244457383558,0.452057405985193,0.473639613819929,0.550541328946019,0.462500574545435,0.428887516378163,0.453308530172644,0.509919472283388
-220,cane,12m,FO,0.505679095187688,0.470900525559879,0.509976225314946,0.419846312322957,0.473221308175493,0.554118180811214,0.456979517846141,0.481183070742185,0.435625544434897,0.458136529580205,0.458319656387758,0.453108489545056,0.452083736657924,0.476247354006924,0.548433188898946,0.458238548178192,0.428744281260137,0.454908633334941,0.512421573245777
-210,cane,12m,FO,0.502371085624438,0.469017410772413,0.521737213342844,0.427453373186649,0.478368149323397,0.554730082836901,0.460758215699608,0.477980867828697,0.448985486248287,0.458391390216572,0.449192184209779,0.463266490701155,0.456300936049428,0.478677558614651,0.543212732762245,0.452020854971857,0.433184422002797,0.45877340844936,0.513402421308888
-200,cane,12m,FO,0.497696555251958,0.465516818675323,0.529234955016901,0.437488541759328,0.482962190452491,0.556412384771806,0.468965189806545,0.472857552425033,0.463341397698158,0.457918455413706,0.441150619576478,0.471412353138237,0.460018576594531,0.479192032839013,0.535268333807387,0.444221325786946,0.441270249843468,0.464539459346118,0.513382577235123
-190,cane,12m,FO,0.491621114336324,0.459349918643333,0.530970407029376,0.448157870185137,0.488731474536268,0.560128008178476,0.481657301548207,0.467631736831399,0.475995303380456,0.460112510821204,0.437739996015291,0.476640258255887,0.462145368671515,0.475861208497181,0.52499442107341,0.436806009131462,0.455282198266972,0.471166112781143,0.514027906274718
-180,cane,12m,FO,0.485243567785646,0.451063250376373,0.529200059727476,0.456967737404371,0.494866893298622,0.565631149226421,0.49362747291275,0.464834142227601,0.479694929789985,0.465883375696602,0.438860616251259,0.480112048287552,0.464963333590561,0.469465678300969,0.513662251982529,0.431078782867654,0.471948581910135,0.478934563538854,0.518938653219595
-170,cane,12m,FO,0.477992634728947,0.443749993343442,0.52458438478779,0.463781499986987,0.501915056193346,0.572243821285785,0.502148951616469,0.466276531912309,0.479969685629601,0.473038786104901,0.442598502091741,0.482110882047179,0.471763730789538,0.463835726181861,0.50465038361042,0.428664131002348,0.486355081067606,0.48656852877539,0.526418892800493
-160,cane,12m,FO,0.470811239428268,0.440949476454982,0.514040604086926,0.472020077753479,0.509471219586519,0.578319657204701,0.506405601640054,0.469411770799502,0.481343507930274,0.480510885602389,0.444062350987617,0.483913052190997,0.477640352020483,0.46036148218319,0.499818144272848,0.431906266629831,0.494472248271067,0.493800689939058,0.532502794488125
-150,cane,12m,FO,0.462769053686962,0.440508756432091,0.498496908322377,0.480858069403787,0.517784827799404,0.584255388867538,0.50910666746302,0.471559036383221,0.485052408887321,0.486547813848771,0.441851238788491,0.487781643555198,0.483291180577963,0.459537096454447,0.498858568054415,0.441103557072552,0.498507622166461,0.500959747267899,0.53780025341326
-140,cane,12m,FO,0.454786682281677,0.441088395907318,0.481802358012735,0.486712952803918,0.524208591516439,0.590788622376696,0.50956031613672,0.470396244144728,0.491199452169139,0.48815873793448,0.437221133168037,0.491660168007184,0.488891194058305,0.461082065991984,0.500361975300401,0.453500087018219,0.501003887077621,0.507173308426043,0.54587691468231
-130,cane,12m,FO,0.448810079427726,0.442020075251817,0.462657020796327,0.488759611395906,0.528826553970269,0.593504517936555,0.502702294492654,0.468236465008008,0.495065925824071,0.487629292507647,0.429634424398732,0.496372374823463,0.493305796907738,0.464998440681117,0.504744334896724,0.462994837237322,0.501763426186622,0.511607267040865,0.557211252652761
-120,cane,12m,FO,0.446053009490214,0.443472917882498,0.444121882355863,0.485840281868764,0.53000223994375,0.591763329621263,0.490042527354192,0.466681529431134,0.494050198896604,0.487358417390929,0.421981281243961,0.500584440433089,0.494738609523241,0.470192091036855,0.5114928038216,0.469172123424496,0.501309309389927,0.514839773269219,0.57085719387563
-110,cane,12m,FO,0.446746508676772,0.445977406723113,0.431823662284946,0.480081147243089,0.528681188360497,0.588831556610285,0.47753630334356,0.465445109411727,0.487419100877256,0.485797760751639,0.419425741091454,0.502541291877732,0.496911866044973,0.474284551984392,0.520060800617455,0.473414791035041,0.500699925413632,0.516579526279753,0.585289478164547
-100,cane,12m,FO,0.450439855045046,0.447860956726715,0.428900126009215,0.472511236931357,0.526502107590134,0.586009255019683,0.465830196865184,0.466175786976328,0.479732989256365,0.483437232269111,0.422041239839887,0.502936694304024,0.50075636697741,0.476606948347417,0.528327615561065,0.477120049047446,0.49996806333376,0.51748527588249,0.600156469517854
-90,cane,12m,FO,0.455785192268716,0.445486665397953,0.437691718513565,0.463433127633645,0.525089023811924,0.582754595078447,0.454409977484179,0.467906957164143,0.473955662007492,0.480802463707326,0.426121270102387,0.501702623157999,0.503801942686509,0.477801659239088,0.537264677329071,0.482630613082324,0.500828025867239,0.51744154361803,0.61434463253233
-80,cane,12m,FO,0.461408469739478,0.441180910489872,0.45485465948672,0.453890044540133,0.524100111646226,0.58035995083961,0.441596732170617,0.469529050837837,0.467742682116633,0.480761252779377,0.426580966072628,0.496129336689578,0.505317612121309,0.477345574716308,0.547476636368675,0.487539404380562,0.502749737694577,0.515521289287756,0.624584315057361
-70,cane,12m,FO,0.466301314088671,0.438944198677341,0.4759240724818,0.443377427150648,0.522237349002664,0.57725457827828,0.42812394905049,0.470800423286224,0.461919993258695,0.485452432637848,0.423124735004707,0.487398041515246,0.505490850411225,0.477381212832103,0.557505040055356,0.488602406604417,0.507417831059264,0.511725122995255,0.631477454594354
-60,cane,12m,FO,0.47061543882501,0.438921873660462,0.497981899710832,0.433881362982695,0.519072517131796,0.570999619989631,0.423920066866614,0.470501949348534,0.456259411661546,0.494638888915753,0.417394036433925,0.480060398078456,0.507876588636115,0.477108644254738,0.564724523027705,0.485916797364065,0.512794448441089,0.507021723682847,0.634671875639503
-50,cane,12m,FO,0.472996641296602,0.438666579275186,0.518821412854144,0.426214202803481,0.516653427675953,0.559972409318727,0.425609325715888,0.467963924170693,0.450076989645695,0.506121854090804,0.410299818789908,0.475498360797053,0.514248404449674,0.475164516242911,0.56984623644289,0.485550472354729,0.516454964350427,0.501568889569339,0.631879769769597
-40,cane,12m,FO,0.475899271460213,0.437585950166835,0.536308930396745,0.420733724988055,0.515353223949789,0.547386269377747,0.432913755478052,0.465071022505538,0.442145496228935,0.515472312489119,0.40559231551158,0.472108214615789,0.521836450102261,0.473150502308684,0.572037986144725,0.489510998245971,0.517003830553419,0.494247739188398,0.620593805375109
-30,cane,12m,FO,0.480325369065105,0.439042661965057,0.551507432117619,0.415898792980412,0.514367883492398,0.536272486034707,0.449145364848931,0.462408572547276,0.435023765377792,0.519728185119292,0.403761337403363,0.469366350599005,0.528920164585206,0.471386367639976,0.570872784060465,0.494982486371341,0.515835212745866,0.48652917907619,0.600196262247106
-20,cane,12m,FO,0.484391962102522,0.439225861958817,0.565014348103026,0.412305105753763,0.513512745845008,0.526321290869938,0.469286731716071,0.462953230620669,0.428279490450719,0.520733390060336,0.401954193698386,0.467278103808065,0.534873144311739,0.471186148403448,0.567254263646164,0.498622596383321,0.513992112587704,0.480668541980196,0.57736320918938
-10,cane,12m,FO,0.485081578401725,0.43777803668805,0.576413546431822,0.410558934047521,0.51214282078985,0.51600677966258,0.484801920594913,0.468817094417386,0.420181115257782,0.521573397612082,0.400338617340193,0.465851103330645,0.536537343643348,0.472870758914206,0.561827684944892,0.499920528206286,0.510309079491117,0.479654917509553,0.556617573662816
0,cane,12m,FO,0.483086945862424,0.432637053829992,0.587031279987283,0.410817497955576,0.511424512880785,0.505316669086942,0.49395807067496,0.479253134209391,0.413389043344437,0.523214138736198,0.395855448173863,0.465343941710062,0.533021344392385,0.473606921628007,0.552961473776412,0.49908336348047,0.504768270985882,0.481103157621084,0.539548823722225
10,cane,12m,FO,0.478930424560056,0.427056476972521,0.593549173687626,0.412823020014835,0.509887871052978,0.498008570397939,0.496664361116839,0.491986288144732,0.415869006955329,0.528202249634842,0.388239721333593,0.466680885844318,0.525049948351299,0.472002976569528,0.542920583313625,0.496084696852355,0.497834040650836,0.483177972626583,0.528403302908258
20,cane,12m,FO,0.473901440907129,0.421784496404678,0.59877761853522,0.418622170802972,0.506750061526556,0.493994710933823,0.490195858255645,0.503679577053552,0.430753288915653,0.535357040361657,0.379931214673167,0.4707150041236,0.513671702016331,0.46941014392714,0.532774758042553,0.491633523324515,0.491824096454844,0.485793582379316,0.524353139508839
30,cane,12m,FO,0.467867578316214,0.417755908343635,0.602901290163432,0.426770056274852,0.502668384766918,0.489863225423278,0.480906635135067,0.514773348986361,0.449446154322532,0.542038249758217,0.374419565977607,0.476007440843101,0.500957272969537,0.467380810753187,0.523692926706569,0.483403695216359,0.485218592767761,0.487677228586959,0.525925532105665
40,cane,12m,FO,0.461811698577057,0.419190777682743,0.604861172530034,0.437729564128401,0.497062700664073,0.483814262707315,0.474525384996589,0.524753300468516,0.467959907790891,0.547748358064768,0.374958636293442,0.479283373956804,0.489582827783755,0.466515224270317,0.516821982554698,0.471930849076443,0.476260923242109,0.487447182225702,0.532396127673944
50,cane,12m,FO,0.456571787712513,0.42493703082391,0.602959348568947,0.44980724707876,0.488179884731293,0.474530385506549,0.475409602782328,0.532261168359791,0.487656638007162,0.551249542917049,0.381468312242113,0.47825153808197,0.479923239611973,0.465928804541667,0.510530433924989,0.457606768229138,0.466870822569402,0.486130919624109,0.542308473006907
60,cane,12m,FO,0.453266768144686,0.432839031054006,0.599241582163133,0.463055893040179,0.477354680259945,0.464287416345062,0.483350105035393,0.538851437726786,0.508898197108806,0.550855625562794,0.396683285535122,0.475887158029079,0.471032115267632,0.467058237709543,0.504048485943522,0.440194732218368,0.458522634801343,0.48385388014898,0.552156457697188
70,cane,12m,FO,0.451171553221457,0.439359576290755,0.595012280269301,0.480159408936458,0.46677899688437,0.452886987345153,0.493265652009202,0.542084045367063,0.530665675284393,0.548793829648262,0.419362168513444,0.474565621549003,0.463196704006764,0.471162169618918,0.498115535672359,0.421886538002626,0.451048078243367,0.48167018398921,0.562017165816439
80,cane,12m,FO,0.449179008023095,0.442022950123426,0.587790440189741,0.501437481692467,0.461001345802182,0.442920297564305,0.503895365551606,0.53935680780597,0.552282422454543,0.5472382631367,0.44248393364609,0.473597338766404,0.456908765633544,0.478272002295649,0.491372015660053,0.406381524988848,0.444030806706559,0.479324395809495,0.570092595953417
90,cane,12m,FO,0.447734474513701,0.442251446874323,0.579815380284857,0.523653351517409,0.460234144834945,0.438268393160744,0.513439131752799,0.531583019646626,0.570438437216236,0.546350418381138,0.460167379249939,0.46952187669494,0.451362970761831,0.487034397324386,0.484430604126451,0.395934708174242,0.437171057174063,0.477946649956482,0.575926518573916
100,cane,12m,FO,0.450056464890637,0.439021780369589,0.571365150709565,0.54692211860183,0.461334229746893,0.439828225019612,0.523603653106703,0.519054127764749,0.58315598842746,0.543728210994323,0.472188155780865,0.462910955993413,0.444411831149189,0.497263091507459,0.477572006074826,0.390152205832024,0.433526531030741,0.47732994818025,0.580324773149283
110,cane,12m,FO,0.456323305161289,0.435533981383804,0.560832502268288,0.567829827880397,0.462072527412132,0.445711303804534,0.536360047851632,0.505063024206728,0.591996139967693,0.538874990431561,0.487728220056122,0.456605682777078,0.43806844641292,0.506862526869399,0.46961679871652,0.389747455205235,0.43328844990042,0.474943451061914,0.58239045835976
120,cane,12m,FO,0.463698631954436,0.433959781697419,0.551583356259523,0.583440944199697,0.46303160000477,0.453454280963579,0.552046543300361,0.491233458064898,0.596132475381912,0.528817049532586,0.506514587874287,0.45048633896792,0.435389763550428,0.514620438531549,0.460604091251689,0.392567140152078,0.43723994602778,0.471967222350821,0.583138843310345
130,cane,12m,FO,0.470028415000209,0.434431765267228,0.54658967812435,0.59028176655324,0.46464237242374,0.460160475735475,0.568438092158976,0.480809295618365,0.591287346065552,0.513805257497103,0.521715553543288,0.444187641655607,0.438298323854932,0.520955845423401,0.451881194547437,0.399013233845082,0.444465551787777,0.468951804715714,0.57927815670174
140,cane,12m,FO,0.4737574551922,0.436738479268654,0.543875636377686,0.590532835440548,0.466164697973319,0.466181536324826,0.579917093742769,0.474865440930948,0.581036008780053,0.497583925841826,0.532858872272442,0.440045904784322,0.444765378536668,0.524524863162171,0.445055984029273,0.407985912735771,0.455212059693788,0.467554820953121,0.571716859851446
150,cane,12m,FO,0.475139487110534,0.439818895100457,0.54328898607555,0.58816475158082,0.467248617528406,0.471620033171931,0.586027577184866,0.471306323063215,0.567686213061624,0.483680217298941,0.539721570288544,0.437682521905423,0.452849357275351,0.524439203532207,0.438282983024036,0.417568948056028,0.466298189403738,0.466883843628996,0.562125633772967
160,cane,12m,FO,0.474936193539338,0.442888401968031,0.539126471408253,0.582639977126452,0.466543989740969,0.476498906394942,0.588864980053778,0.471680892197289,0.548773374671294,0.473840579790123,0.542507695991292,0.436190671278113,0.459973828863711,0.520732394413739,0.4300058189299,0.427345185875908,0.475547660729177,0.469280095037251,0.553267421613108
170,cane,12m,FO,0.473843074969456,0.444171582977661,0.532991719683327,0.573279118973411,0.4671719616992,0.480894766513375,0.589190598291753,0.474726863230246,0.522682387655759,0.469012074705131,0.538466701231062,0.434782890013134,0.464860365920124,0.516223069546625,0.421377213446621,0.436307619288937,0.482096040175226,0.473800464575327,0.544102448305735
180,cane,12m,FO,0.47340669210913,0.443568544517088,0.527020782229698,0.561883055850815,0.469435035547771,0.483857132646427,0.586918412169651,0.478531424045507,0.496029314916293,0.466203380122223,0.525700826839496,0.43495471775238,0.469920613893188,0.511265453955966,0.4119362201702,0.441814666223224,0.48625530837931,0.477535407044098,0.532963769659006
190,cane,12m,FO,0.472425913453512,0.44429885412972,0.518787062613539,0.549385339889761,0.47142940940277,0.485833058780089,0.587899988449918,0.483749367051382,0.472353398871678,0.46580359547015,0.507864475568517,0.43794555788314,0.473847196521379,0.508031737261599,0.404346145350313,0.447438882317318,0.488419877697736,0.479349177732572,0.520638845648675
200,cane,12m,FO,0.471460017449446,0.448965852379851,0.508452357213383,0.534675513955893,0.472040718560787,0.48669111185893,0.593810415322879,0.488974011641641,0.45238550935183,0.468581161053526,0.48763724753207,0.441372654401815,0.475001827338164,0.507898897647197,0.399990070505973,0.45449471470645,0.489479821497266,0.478580175811684,0.508098689826385
210,cane,12m,FO,0.470317214957624,0.456198119321671,0.502543144192292,0.517730128696227,0.471559767291347,0.487582922478475,0.605755378390758,0.493429805225442,0.433881903595766,0.472190497067188,0.466263658390326,0.444051464070295,0.476419331474322,0.508228856369833,0.396988557185822,0.462362362445412,0.488746065824235,0.477659631378266,0.499317386898624
220,cane,12m,FO,0.470072586374238,0.463268485232129,0.495424680277341,0.497352599322191,0.473031076846668,0.488712483995679,0.622876974331004,0.497776523635663,0.413792302237787,0.474466453647678,0.44371497958624,0.445913926979845,0.478710550603631,0.508757614944818,0.393399349382638,0.469387913114554,0.486388512107584,0.479408968874867,0.495517040021898
230,cane,12m,FO,0.472327079781606,0.471018919202953,0.485392081281812,0.474693521383521,0.47679992292089,0.489353042291573,0.642854080703509,0.502780078111288,0.388613992200576,0.475551083807904,0.422051027092619,0.448539731512298,0.481816094349483,0.507923240339589,0.393120453155157,0.474405711530889,0.48200816117389,0.483110761336868,0.496253800090353
240,cane,12m,FO,0.476255632545275,0.479862040857503,0.476783240963642,0.451556900316658,0.481063533923611,0.490260586079752,0.660185220905079,0.507554503869217,0.361876957801619,0.477948017224398,0.401926794593895,0.452810620464425,0.483875219126037,0.504287522179166,0.398923842507937,0.476099584425754,0.476056580715959,0.485859584074513,0.500694460825991
250,cane,12m,FO,0.479507155674501,0.489692245610255,0.46854252161415,0.433533610655577,0.483316125346375,0.494397252070017,0.670053752236824,0.510799192171474,0.336950641235189,0.481457143134529,0.383942817480903,0.458553222839882,0.485511306428344,0.497979367264796,0.412736594924771,0.474289609994902,0.468681338502736,0.48738335912759,0.504210879901565
260,cane,12m,FO,0.481660505656422,0.49634976832539,0.460684413354257,0.420753916933933,0.48274692641122,0.501252925061791,0.670061950012928,0.512904252202809,0.315878513009108,0.487614132581045,0.371916088384482,0.46677382670958,0.487354526045276,0.488560900083762,0.430549973109634,0.474326079237168,0.46269894312829,0.489377426018487,0.506578961921681
270,cane,12m,FO,0.481666962243279,0.498757738166236,0.452959307196566,0.40984638376063,0.480718565065028,0.508871568058327,0.662989567710133,0.514512302283303,0.302894850951344,0.498245360062555,0.372572913036943,0.475881429701227,0.490783911193375,0.477096393497267,0.447608674669416,0.473586340049037,0.46123963952202,0.491690067402906,0.509815936676898
280,cane,12m,FO,0.481556493484494,0.498092882632328,0.448486002183901,0.401134131374221,0.478640538160493,0.513917629097389,0.6491040953986,0.514898117347453,0.298909569102906,0.508210027756583,0.379892632889119,0.4844695994134,0.495529064527951,0.466730242587557,0.463892788614056,0.470288041444079,0.462550927172852,0.493986430892307,0.513810535106589
290,cane,12m,FO,0.481453713058988,0.495886079291528,0.448691641674728,0.394608422295801,0.478595238831624,0.516725290127392,0.629519009426273,0.51453769300161,0.297963246960879,0.515139403505223,0.391025481398521,0.490036753158017,0.499662170216457,0.458637654517607,0.480053899364464,0.463701346733028,0.467213957242304,0.493136321592519,0.513027079941905
300,cane,12m,FO,0.481894840092155,0.49109651788435,0.453082264218422,0.390859156608683,0.480483321807973,0.518669944188893,0.606324208598868,0.513836297528421,0.30151464294009,0.517941207620138,0.403844261778669,0.491278235932699,0.500892691059549,0.453023208446,0.494578013150305,0.459114503928444,0.474922949379082,0.489285842217937,0.504312503387806
310,cane,12m,FO,0.482691887193649,0.483746185146857,0.45810030414826,0.388746835387462,0.483838104428089,0.519409282292718,0.582280464257025,0.515102981909031,0.310828449213395,0.517079748853757,0.413525281120649,0.488136136735273,0.498486969773367,0.449073822621051,0.505836594565123,0.458338068797178,0.481730019878018,0.484951339145715,0.491417119007664
320,cane,12m,FO,0.483497567406271,0.474592684888334,0.460683959714822,0.389359276437704,0.485944778840942,0.516977490330647,0.561012405217991,0.51767612640189,0.326888501919682,0.513353719103357,0.415478208229546,0.484282831378457,0.493887834784282,0.446894030427294,0.515045748486949,0.460914677791947,0.483562595941076,0.481869626801501,0.478669517815819
330,cane,12m,FO,0.485511271200271,0.465834647476611,0.461683715028732,0.395004304431904,0.486185391913719,0.510259247447715,0.544202488951522,0.51925412042892,0.350781289684112,0.509141672245379,0.409296321647999,0.479561634956629,0.486556505539914,0.446254072060878,0.519618654118096,0.468407070848805,0.481386475612245,0.480538812464786,0.470916541233899
340,cane,12m,FO,0.488837844019603,0.458930422441379,0.46421183658323,0.407691095012959,0.486042450300085,0.503331970284387,0.532919490693542,0.518625904082402,0.377192032767863,0.506067583208429,0.39793296296571,0.475135296271576,0.478416575287336,0.445976644539484,0.521541025232455,0.478844650309544,0.479042853958716,0.479884440867068,0.465934214372884
350,cane,12m,FO,0.492793698107928,0.454275030570753,0.462100624093158,0.430207334303953,0.487062144144908,0.495397741754296,0.532250419275664,0.515139715583193,0.402689221238588,0.505376638682125,0.385799963704428,0.472016795191042,0.468134049684083,0.445496176947721,0.523221643543243,0.493268816963308,0.47668197600399,0.481164517402814,0.459580201468107
360,cane,12m,FO,0.495278046980613,0.45178221129064,0.45627889531313,0.456780738301029,0.488905439202733,0.486728613540671,0.537214990852148,0.509865799189407,0.426857503417627,0.504298903666402,0.376947647197594,0.46932226344023,0.458368684076789,0.445359552178165,0.525111849429524,0.50931554812805,0.475514361084037,0.483507449049611,0.452882945931308
370,cane,12m,FO,0.49459086660355,0.450920956561716,0.451240837379115,0.481220316536105,0.491514713105987,0.478851634540417,0.541770681974059,0.503947094370538,0.446556732863225,0.499457498842511,0.373790933215421,0.469242366182146,0.449970523277195,0.445910395264429,0.528492420666233,0.526588580172321,0.478033104904864,0.485664065594469,0.448170323273208
380,cane,12m,FO,0.491050935340535,0.448786475350689,0.447444383603805,0.497670063747677,0.494176633099233,0.468860666625818,0.545355708345155,0.498333570087839,0.466250202141593,0.490872069625219,0.380429363584248,0.472653146807726,0.443284095363111,0.44824148950598,0.531420969369962,0.54466872364347,0.482500921608352,0.487092256442782,0.444976399159999
390,cane,12m,FO,0.485620117272098,0.44651218360605,0.442671829241389,0.505398908489683,0.493797029472249,0.455849466161009,0.545236419607251,0.491660601020512,0.487456490907214,0.480957763944661,0.391717497196837,0.479007225746835,0.441609714072273,0.451410290525086,0.531621306070407,0.558772162304741,0.487764095506826,0.486679313016414,0.442044367601711
400,cane,12m,FO,0.481637934870184,0.442526543487408,0.435245811661489,0.507307747853484,0.492506843969433,0.438643829747589,0.543848983030364,0.484028574751005,0.505897403098185,0.471689587820806,0.400587654472752,0.485865271990817,0.448572182283561,0.454178680525418,0.528503724704853,0.568861898366214,0.492572443667551,0.485358720818096,0.438951347054109
410,cane,12m,FO,0.479361902989136,0.433747118031614,0.423764115084651,0.506365261726349,0.490211571032878,0.417853247231113,0.539510456800842,0.47707663457103,0.515952625854626,0.461978933351763,0.4020888828597,0.490229745944323,0.461856090112051,0.455338654771337,0.521046403354551,0.577662789058732,0.496806388344916,0.48368179168958,0.438049089642698
420,cane,12m,FO,0.47941504550964,0.422503602895142,0.411257592611886,0.503074574725915,0.487476339138796,0.39846529560156,0.530918841865387,0.470863087226622,0.518588915000678,0.452409972799928,0.399282965786181,0.490610675954167,0.478284771404613,0.45478578250751,0.512205325503896,0.586051759348741,0.501110075930148,0.481940274504594,0.439566572150747
430,cane,12m,FO,0.481983791689156,0.411079122704436,0.404363224261342,0.500117705624641,0.484718945122004,0.384669348604333,0.522843051267668,0.465404273826073,0.51741028770573,0.446193099369283,0.398619075329505,0.489255146722329,0.495149631112602,0.453325907422951,0.505329536282345,0.591366991200916,0.504998899933785,0.480432210084587,0.44418608546852
440,cane,12m,FO,0.486155724959628,0.402602569859416,0.405688654771153,0.497811866549979,0.481971751360834,0.380267949140624,0.517702988613199,0.459841288323633,0.513275324206561,0.440867888278301,0.400865854054727,0.486611500681367,0.509269499707011,0.452377114353149,0.50024604498653,0.590237571206046,0.509509651689666,0.479454041299741,0.444320216709923
450,cane,12m,FO,0.489771878008402,0.398970967135707,0.416919248360893,0.493246303172167,0.479936719330707,0.382243132884019,0.513989151911144,0.454878843623611,0.506825845039492,0.434634682247245,0.409165667217976,0.483795079004624,0.517795418240398,0.450790735088265,0.492833288008296,0.580520911128505,0.517554476483232,0.477266372562338,0.437748537894063
460,cane,12m,FO,0.492703356031907,0.402332568081325,0.433421325740675,0.48877481585266,0.479285073981605,0.38657525668649,0.510239445876183,0.452174837177175,0.50161668369575,0.42849912953954,0.420592106728974,0.481874002472425,0.521833005247029,0.448846781124388,0.482320442888744,0.565759999884253,0.528298217140491,0.475195387779761,0.429523836683173
470,cane,12m,FO,0.495643450652611,0.409316024218168,0.452303326138855,0.485561090467331,0.479319110487997,0.392938250943271,0.502558458670126,0.45024436246303,0.498012010442769,0.422561468919566,0.432618650751744,0.480591920171272,0.523411255082026,0.44513390631044,0.474190731690917,0.545453288255673,0.539845126501783,0.473359729972546,0.419306140167748
480,cane,12m,FO,0.497635491311619,0.419604248717785,0.471644875486394,0.47985552376961,0.477701581029141,0.403594149000166,0.493540974977426,0.450139546884226,0.498445728790125,0.420415034469467,0.44649261617734,0.479135072344862,0.52354531977626,0.439552950408741,0.471171177856862,0.523244549817144,0.549974769973848,0.471045116909429,0.40746548072417
490,cane,12m,FO,0.499413818197516,0.43392301006884,0.489310850611828,0.469623884994677,0.472870961275411,0.414799793769285,0.486649134238416,0.450728654152958,0.501654536506144,0.422810780173418,0.459130603371899,0.477269698215739,0.523806863561726,0.433478551282665,0.470087073520695,0.497888366178195,0.557545785970045,0.467970146731159,0.397113933564727
500,cane,12m,FO,0.499321725049588,0.450656621733698,0.499276898794385,0.458678808587436,0.469117714852444,0.427710524313106,0.482012488950567,0.450294101300812,0.49818196778416,0.429048676789403,0.46990510414475,0.474643833897185,0.524005100101122,0.430078890480052,0.467894721183267,0.471763526056638,0.559020047191972,0.463107229224778,0.391539836143695
510,cane,12m,FO,0.497679882661265,0.468338669273842,0.496935939884078,0.449917183720809,0.470343639493924,0.441152904213827,0.477928930078877,0.448697716001,0.484236877795865,0.437796335931346,0.477503136194727,0.472115862850989,0.522106577590932,0.428951501417051,0.466227721277211,0.446987127443025,0.554402238488399,0.456030362568749,0.39096018439997
520,cane,12m,FO,0.496841632809085,0.485391199653711,0.483552574493925,0.44555547858592,0.476656787157803,0.452143331185131,0.476602160769145,0.446735829628564,0.46541981831645,0.447860821825989,0.4829780972029,0.470674537167721,0.519346846511352,0.429841804593126,0.462917468816477,0.426404767217136,0.544620399764781,0.449246913457778,0.395549913337795
530,cane,12m,FO,0.49709961557629,0.50289110524048,0.461976680850525,0.445785784525007,0.482651167944557,0.459805907383849,0.481126182340108,0.446869518833245,0.447287140397529,0.458276170110455,0.487644724377445,0.468476319906627,0.515021151269904,0.433537187088354,0.458018424192757,0.409437099888911,0.533532504174699,0.44467852179529,0.405240314158671
540,cane,12m,FO,0.49800125291409,0.51711659753916,0.435859351427859,0.44716469184521,0.485983969339681,0.463598795526426,0.486121001646882,0.451248286719074,0.433867582495245,0.470194621922983,0.492952156916286,0.465257427220988,0.510432407931134,0.43899297583733,0.454360562959976,0.394369985591572,0.525008114397723,0.44177681422692,0.420066032206537
550,cane,12m,FO,0.498143870422072,0.526103358595075,0.415463749910734,0.448522271066027,0.487441785222039,0.460370720462643,0.489183517638865,0.459226620429458,0.42450837043057,0.478616737916484,0.500205092071667,0.461064569804223,0.50618194475268,0.445070118891147,0.452479621439327,0.383583535296009,0.520453939969765,0.440809661050188,0.435734244958161
560,cane,12m,FO,0.497574424742136,0.529999728992668,0.405809956799069,0.454575123110033,0.486261376397986,0.451086084120283,0.491134974995181,0.468370704029572,0.422238237665152,0.479463777751692,0.509632767012947,0.455048595149067,0.503932665784442,0.44985627212299,0.454310304901453,0.378564908219727,0.521681012239782,0.442045234491734,0.448493711087947
570,cane,12m,FO,0.496987682393603,0.529778221360606,0.402702636840498,0.464943828281361,0.48187337819436,0.440864492416593,0.48889133518473,0.476968201573784,0.424692413560585,0.476781591371583,0.519960785482323,0.45023119389614,0.500972598754759,0.454065859535524,0.45829013180028,0.378371154903745,0.524434208851456,0.445504514883498,0.454537562978332
580,cane,12m,FO,0.497216513536876,0.529948645573254,0.401054614923587,0.477191424929816,0.474077302985028,0.43523442739453,0.486824424657445,0.484248112849644,0.427507118761055,0.475325936212476,0.530765709120922,0.448807731640559,0.495597596464991,0.45626690614507,0.460402323190348,0.386419861620701,0.525965378617319,0.44966766061686,0.454110181374209
590,cane,12m,FO,0.498710366735636,0.530196781726384,0.401317710547395,0.489943225289276,0.463273149317252,0.433937220468058,0.48527492688138,0.490507259896521,0.434568366276892,0.476284063489417,0.540692024507798,0.451030602926761,0.488434152228717,0.455302778573662,0.459759464146127,0.400985673595633,0.525388116076312,0.453742223572706,0.448926922761959
600,cane,12m,FO,0.502266905519763,0.527014983063524,0.403944714152631,0.501760304083699,0.451547015439999,0.437445805395734,0.484117422717274,0.494075209790199,0.438813035585338,0.47918336031865,0.544906099276331,0.454607894189788,0.478441001140349,0.4536171044041,0.459388327384432,0.415795116864651,0.524513022431212,0.459091908717609,0.443330655618819
610,cane,12m,FO,0.508081456004785,0.521735326464242,0.409671195200545,0.510196593403318,0.440376778121894,0.443722385169511,0.486231903172409,0.497116401980003,0.436497283920759,0.481201454152467,0.544464320744238,0.458497768712157,0.467357878591897,0.454308925558411,0.460277658719042,0.429186094128491,0.524500613607188,0.465870519040509,0.441416837903546
620,cane,12m,FO,0.514414830069261,0.512637328243363,0.420527551950177,0.516264585371351,0.430636008642751,0.453193413239449,0.488788916831818,0.499831045549104,0.431819620976193,0.483295436811659,0.541904640200147,0.461224693737796,0.458509934233267,0.45900409828077,0.46151223784686,0.439216360317474,0.528530494982903,0.473181695688766,0.445250805105999
630,cane,12m,FO,0.521084249473286,0.501211925750462,0.430022501593786,0.520816075877391,0.425290243721561,0.463315441155887,0.487401861661873,0.50431335621617,0.431071677788227,0.487647994293892,0.54023368708149,0.462943061181041,0.456090272685303,0.465910070383495,0.462996059362979,0.44828990105906,0.537224208165862,0.477653662395409,0.452706543112598
640,cane,12m,FO,0.527734844840265,0.490506876093651,0.437102481956013,0.521179831621421,0.425171549558941,0.468846376689555,0.486187980945586,0.510078424978036,0.434419299227715,0.494625875050327,0.540048988313559,0.462516516625484,0.460067998748886,0.472730524048015,0.46398106651651,0.456796424643195,0.547095669242463,0.478056098991923,0.460218732417651
650,cane,12m,FO,0.534685822317915,0.482567300787949,0.43912079189779,0.521295853139209,0.427960986522207,0.469863862033628,0.487715142994888,0.516732753715187,0.439474958868596,0.506610595271791,0.538365162383764,0.460508433956119,0.469316270372473,0.477107355622286,0.463185385467491,0.462896849154421,0.55528574956782,0.47884338786765,0.467842916309732
660,cane,12m,FO,0.540387785169635,0.47535017285578,0.434779036175169,0.521238026469589,0.430386386828091,0.469919093403423,0.494382412081534,0.522820345695408,0.44381539495249,0.520369327180977,0.535313140028672,0.45850430259437,0.481289498727134,0.478944905982033,0.460702680828111,0.467542631647769,0.562806781318504,0.483043972794042,0.47710024900395
670,cane,12m,FO,0.54285793870757,0.467875390977149,0.424686877218333,0.521299178619329,0.430436666489316,0.471530454049461,0.503572454622683,0.525696967226289,0.445729243609809,0.533391592833182,0.52930931416471,0.459582575054681,0.491029610502472,0.478502033273695,0.457323446125196,0.473431830404663,0.569103293305236,0.488550568460684,0.487824201204369
680,cane,12m,FO,0.541049483346335,0.462312266242307,0.413417516476762,0.519375865729631,0.429559239588391,0.47262109042876,0.511239935817748,0.524099657582505,0.444675159029049,0.545839364479824,0.522246514396495,0.463425632326071,0.497257323261287,0.477544057039983,0.455538319176418,0.479714394602345,0.573904891105676,0.492961518056095,0.497005522736043
690,cane,12m,FO,0.536500764333726,0.460694058146395,0.400840204953182,0.512794049782868,0.429003677558702,0.474202534328083,0.516490338149115,0.520015927227831,0.443931027765942,0.552624590844626,0.517834268758626,0.469392760289414,0.50184362610737,0.478727232292308,0.454783059292406,0.488005289000438,0.577141152880578,0.496198139505794,0.503691701869922
700,cane,12m,FO,0.530533076620458,0.462214706450595,0.386967349145565,0.503521744597291,0.430448748698988,0.477273262927577,0.519682249924121,0.512098508935349,0.446804546906788,0.553599214254864,0.515280324625877,0.478231310781938,0.507289867006408,0.481760760596239,0.4559922107637,0.501071011909335,0.578292542587474,0.497219124148756,0.508960127274707
710,cane,12m,FO,0.524711727669542,0.465572692795293,0.37158806638348,0.48984125506172,0.432145001330606,0.484051217262982,0.523924438217326,0.502007242755849,0.447473515968447,0.553176665925643,0.512938689552906,0.48845089853791,0.514971311974961,0.485200457974174,0.461360007333856,0.515549168519521,0.576686476447004,0.496180449036363,0.512257182749382
720,cane,12m,FO,0.519188744645676,0.468880918029424,0.355422687970873,0.473870797602351,0.434248039269318,0.493583427124407,0.527090838819924,0.491165039449835,0.443417483657434,0.551399373066959,0.510101006913023,0.498447276394218,0.523828054825179,0.487852162839124,0.469811541632731,0.524630275447906,0.572740853299587,0.493787311450388,0.513008149792188
730,cane,12m,FO,0.513840854530836,0.470994834063038,0.33790165308771,0.456796047916623,0.43619549598978,0.50043775741011,0.530692133190409,0.482907562865116,0.441535102771526,0.545572721871955,0.508506417099026,0.507889415676172,0.53120405620342,0.487763078048585,0.480724503555733,0.527767143595923,0.567587339731163,0.491468183725939,0.512901628375374
740,cane,12m,FO,0.509194800266044,0.474472154317167,0.321017019704151,0.437864106575488,0.437976212033917,0.500488304188289,0.534617192147043,0.479358740278304,0.440572498087258,0.535288684979965,0.508747796327777,0.5158233414323,0.535788515942207,0.485134706628462,0.491591208825321,0.523154599497693,0.559064352544387,0.488987314535426,0.511991591068689
750,cane,12m,FO,0.508459833180475,0.479829295036932,0.309950826001229,0.419320887176404,0.440011066507307,0.49589591304722,0.536954182424735,0.479365876375106,0.438491848065665,0.523398493635517,0.507303545281264,0.524004438726419,0.536388226358737,0.483779330572949,0.501431011683097,0.51471149286454,0.54644563918741,0.486622234926945,0.507180324795877
760,cane,12m,FO,0.511005991073091,0.484999385725494,0.311028995254185,0.402088191103965,0.441500922639737,0.489935324130357,0.538094649051986,0.481610836968087,0.431196293988005,0.511720835519927,0.502389273298995,0.531798960610114,0.532580209796904,0.484976112570926,0.508770838213754,0.506296811354205,0.530577265376372,0.485783563310604,0.499532391539179
770,cane,12m,FO,0.515312205102093,0.490363498657613,0.325114589003258,0.393012891864426,0.442482188018513,0.48466361207161,0.534885456031622,0.486109558488943,0.422074788225166,0.500862645353465,0.494355015198558,0.536533613332603,0.524966070137043,0.487011207586894,0.514005226365729,0.499610630584795,0.511982901050069,0.487479055693574,0.488118962811086
780,cane,12m,FO,0.519092002300226,0.495621619391206,0.347167669952709,0.388959381940614,0.442709595069499,0.480592714717531,0.525376348264013,0.491181119229257,0.412213999704423,0.49191289038645,0.486422786264143,0.536850934814554,0.516163330554165,0.488178192170698,0.516114571426784,0.497719907076564,0.490938085518178,0.490951320764246,0.475503137413097
790,cane,12m,FO,0.520688345069258,0.501224714081699,0.367702801222543,0.389783305281678,0.442807798070437,0.476426666828742,0.509592307186501,0.495885240979184,0.402959770037243,0.486412460664049,0.479892974791913,0.533977926373996,0.508004219555728,0.486572607639099,0.515406150795642,0.499865685134748,0.470951317226231,0.494016004499228,0.464412809294236
800,cane,12m,FO,0.519728782145604,0.506694455514657,0.386076498419573,0.395527574117756,0.44201252246238,0.471570127962861,0.493040065416564,0.500396046799328,0.396230586942162,0.484804126763683,0.474430424608789,0.530825737748299,0.499360972286303,0.483784622147894,0.514967180057969,0.507233502569876,0.456654218623466,0.496471963764715,0.456038216029928
810,cane,12m,FO,0.514503380162992,0.509549049536381,0.403887786874659,0.405250239798072,0.441068162267239,0.46621563043347,0.477180577341618,0.506166012468747,0.392641716375143,0.484746213688845,0.471298913612881,0.527232993700422,0.491984145030531,0.480262403667048,0.516689137756093,0.515988608642291,0.446554167301763,0.498354749140508,0.450554402241041
820,cane,12m,FO,0.50699271767249,0.507402413024085,0.424165395611168,0.417228173930273,0.442457220957146,0.463323650969827,0.464593064607079,0.512495367948263,0.388888117537044,0.48319696002205,0.472149127438502,0.521743519379188,0.48773636056135,0.476042689074189,0.520267699493453,0.523328514144142,0.436421004889199,0.498879647940605,0.446002247646847
830,cane,12m,FO,0.497899499825121,0.504283836104854,0.448865772693066,0.43108067344429,0.446592953550306,0.461470412512782,0.458585236211423,0.518487793622344,0.38210749774887,0.477263531792186,0.475946269492692,0.51427902666156,0.485205656936051,0.470901731422142,0.527327821306935,0.528444797146397,0.426809072998955,0.495000546143163,0.444589758923606
840,cane,12m,FO,0.488939564614681,0.502845102734112,0.474371561499987,0.443081784914689,0.451785290344856,0.461324172940408,0.454974669836074,0.523640142787979,0.380434683876517,0.466247598611917,0.481041331761876,0.504469960881288,0.484518144899649,0.464400009287965,0.53461678622752,0.533856365401299,0.419827812413528,0.485946688785431,0.445670082122336
850,cane,12m,FO,0.482429465704774,0.502068396260086,0.497413035936412,0.453109858509576,0.454255229483676,0.462657615332424,0.455209349167187,0.528274711108628,0.383843912598422,0.455994489243146,0.484284615364727,0.493262860399273,0.486188956646184,0.455768026593538,0.540470034747909,0.53569908382705,0.4183514427995,0.471997641703706,0.446909203993272
860,cane,12m,FO,0.47984581368535,0.502507450095929,0.520378819230449,0.460890758129932,0.452966758415683,0.466112786763334,0.460362828629494,0.531411670881974,0.392865120620699,0.447781309515365,0.488818038744396,0.482550716276722,0.490741177897939,0.444965471784359,0.544166729265066,0.535848107691986,0.419932274334238,0.455604613057996,0.448090663060646
870,cane,12m,FO,0.480813828069324,0.503660058845935,0.544603194644025,0.464301949885943,0.447628266923073,0.469837074510186,0.464148006085688,0.529816908592411,0.400862527358235,0.441753939518605,0.497050946817011,0.473584308234105,0.492717627761351,0.437932148101258,0.547082256323108,0.533322131256619,0.423896481880252,0.438682361965488,0.449093270381908
880,cane,12m,FO,0.481862122895141,0.504363045977437,0.568152199594096,0.464789865158207,0.440592998773089,0.474463652597771,0.466941142074269,0.524111721103386,0.411410404899338,0.436713990960885,0.510562930206736,0.46854727603392,0.493012464499321,0.435071032991251,0.549753617720499,0.5298346615387,0.430030186845604,0.42334869182194,0.448919002169826
890,cane,12m,FO,0.48014806698776,0.504223139758941,0.588109422562592,0.46540404835599,0.433217563695174,0.482412042281819,0.472152663236647,0.516578319781439,0.428087441375244,0.431023904436335,0.527044867223085,0.467713907142143,0.493244750597704,0.436177778829294,0.553417875370859,0.527183021121983,0.437479684958435,0.41152650482169,0.450008748907437
900,cane,12m,FO,0.476856311321113,0.504464853974367,0.608379012594157,0.468757522452445,0.425989197365725,0.495028763242126,0.480810820669581,0.507793738393701,0.446746406222177,0.42340092690614,0.539399744877334,0.468831388512127,0.495594703066857,0.440738581577327,0.557557178085616,0.527748366590957,0.444828417121248,0.403198577347999,0.455864400765508
910,cane,12m,FO,0.475095742218029,0.507780866266767,0.629703891999103,0.473773402767602,0.421457074371447,0.510015448238397,0.490065486904935,0.50081922241893,0.465694209755867,0.414146088866244,0.544008714648437,0.470894315547165,0.499587331402829,0.446196311739294,0.561254235643757,0.532347016405481,0.450851979409199,0.399251586007154,0.463017042295921
920,cane,12m,FO,0.473385449299564,0.512509634838738,0.645901273916998,0.479258582112155,0.421928137363117,0.526907275628136,0.498220768722189,0.494971279821916,0.482726150958498,0.404781653863514,0.543986208666427,0.47568836663113,0.505238940894599,0.451765306216491,0.566361331337157,0.534994664092116,0.458950478403461,0.399663187823957,0.470900747080322
930,cane,12m,FO,0.472340952444908,0.515740563661556,0.65123674499574,0.487002596899826,0.426182696620502,0.542676123126712,0.507999611056336,0.489099068335447,0.50201816889328,0.396218920560124,0.543596044391545,0.481687220584583,0.513622768192679,0.455544020660001,0.571242431957254,0.534988856829192,0.467548076248919,0.402198539290661,0.479881275191052
940,cane,12m,FO,0.471210614902651,0.516589184108402,0.648016628972664,0.496126407504464,0.429676844172108,0.556942698099895,0.517103115630281,0.48573983182955,0.520277909444662,0.389864392423987,0.5430710849784,0.487596083400162,0.524375561200659,0.457699837760954,0.571279244841198,0.536101886587768,0.475042517748332,0.404307908950035,0.487088298207142
950,cane,12m,FO,0.470134822013915,0.514746558799524,0.643030310958957,0.504481430095507,0.429496087563313,0.567848123591191,0.520409438575128,0.485421742066322,0.536087417982887,0.387077943646472,0.541204092846095,0.491961710276155,0.532643468958684,0.460165986955369,0.567973764980244,0.538375204964937,0.480426779830255,0.407092539375551,0.494847353808654
960,cane,12m,FO,0.468361403388306,0.508923417115994,0.636762574016701,0.512418572034038,0.426918382899873,0.575615744150538,0.514951895765516,0.486926026604542,0.547779686830079,0.389165884369484,0.537877216281735,0.496314647207472,0.537805248317896,0.461937858692877,0.565455087961999,0.541653703772761,0.48192156789,0.410415551930273,0.501023928573978
970,cane,12m,FO,0.46649163816313,0.501598658730713,0.627301577632609,0.51960765786959,0.424020084043571,0.579996642698475,0.503027301392745,0.489019581188652,0.558356936458605,0.39644190137704,0.531677292441755,0.498237664487815,0.539969796925166,0.462821941768213,0.566326191841219,0.541750605419729,0.47904184071174,0.412829477780937,0.502818341792479
980,cane,12m,FO,0.463642644247333,0.492670910002513,0.615127006144076,0.524622743413067,0.424411765109503,0.581101563281553,0.489417283854268,0.492908391711073,0.565913738024354,0.406457699581791,0.523202251594877,0.498583984798059,0.540399367980904,0.462279860082999,0.568154530374895,0.538534732540068,0.47189225562423,0.415189802793484,0.499007730417383
990,cane,12m,FO,0.461464388184441,0.483104811481892,0.60168377567804,0.529186466094502,0.425544723669983,0.579684308377011,0.475433153625042,0.496092904254965,0.568889923256976,0.414807907494026,0.51788277743802,0.497154789599676,0.53960990399094,0.46210443649471,0.568921755225013,0.532954735425038,0.462359902121203,0.41874511957044,0.492127199634877
-1000,grasp,12m,FO,0.43934620256708,0.443900347910601,0.398519665879009,0.401279892689646,0.433537201323268,0.513212915082643,0.416242040803789,0.489601798833122,0.435191911853673,0.45269841248402,0.490217555653514,0.463351150189406,0.409365243530687,0.462227691421316,0.457972429840069,0.400621841800283,0.461224960703428,0.500902839698854,0.478782691301905
-990,grasp,12m,FO,0.436497247028512,0.436808481338533,0.40691018925332,0.376075044798924,0.431238113502981,0.505319051000548,0.4028517179042,0.487989123107871,0.430098030327877,0.455351832577182,0.50296504498589,0.459029292636867,0.408868564100507,0.461086684700995,0.464936100519847,0.39744732749493,0.455267487126311,0.502835158788522,0.481674635405793
-980,grasp,12m,FO,0.436641190477389,0.432113814096159,0.416925439507229,0.355014686052303,0.431285233349434,0.503148096391253,0.3936440712563,0.487829849497781,0.429090017234083,0.457829785773529,0.512381373592941,0.45747929253586,0.410178499346619,0.458483105445181,0.471491315228376,0.405543112138023,0.450521503704454,0.502436662572607,0.479897181355734
-970,grasp,12m,FO,0.440017235555697,0.431944091454395,0.428016313068756,0.340139192254897,0.433954393879193,0.504943614824134,0.385147143451992,0.487564499231584,0.431036819522089,0.459120296817516,0.517459506584715,0.457192682198428,0.415665553556662,0.453306187883572,0.477409467787341,0.419850830477085,0.446225464506341,0.49926555285992,0.477813178606416
-960,grasp,12m,FO,0.444709133085942,0.435536649917244,0.438456311771229,0.331492190459107,0.43931236028029,0.507630041013419,0.378740468044754,0.489548190647285,0.435814073318884,0.456936372755821,0.523387733042176,0.457677140496006,0.424102323815129,0.446597270388011,0.483471960144676,0.433549730338169,0.444587983991809,0.494360262640651,0.477507290611343
-950,grasp,12m,FO,0.450644251337014,0.440156394727355,0.446400813260942,0.330410566890587,0.447302535784984,0.508734559216975,0.376522475592236,0.493236056365335,0.4427108354668,0.452532140956332,0.532083303845669,0.459233701235543,0.434319387523406,0.438349514832722,0.492090517095747,0.444760722238737,0.446152088404172,0.488372685446488,0.478664816180562
-940,grasp,12m,FO,0.456596338143195,0.445788423888811,0.453396971571675,0.331873895721629,0.455977872722443,0.502873515258966,0.381835401513913,0.496553124920179,0.450119790392319,0.447045165720147,0.537403328119462,0.461991082835053,0.445659058225983,0.430603156789382,0.503530666439691,0.453946852469744,0.44563753139407,0.483504186729189,0.483172210636429
-930,grasp,12m,FO,0.461333203226854,0.4509020744126,0.460826578584174,0.336986212579364,0.463256360833674,0.493085003341903,0.395730345068957,0.499259014923815,0.456061096349648,0.44283143482102,0.538576002266739,0.465463644390847,0.455753212826042,0.422713780607326,0.516294009577694,0.460111891875002,0.446166417674586,0.480692547895213,0.489066046038987
-920,grasp,12m,FO,0.466213568796176,0.454708680135917,0.47080887853113,0.343886466831165,0.468698275661956,0.482860041123429,0.416002812812043,0.499541342959434,0.459468334089841,0.440328575367914,0.537437253761938,0.468611491259117,0.461614453886207,0.415692704675237,0.528995991907585,0.463444504803893,0.449454404492072,0.480016920095739,0.494495806961111
-910,grasp,12m,FO,0.469837700709783,0.458420393532118,0.485566865052645,0.352515686897861,0.473118822976461,0.474408692445659,0.438800034131566,0.497023959588985,0.463144608835937,0.438235634651842,0.536906816144434,0.471051796572324,0.464708286246163,0.409875126712464,0.539554786098608,0.468506747033773,0.456926828338908,0.479991229296179,0.498901778045002
-900,grasp,12m,FO,0.471212709465322,0.461528367674851,0.501330046385904,0.36265111252325,0.477358968350989,0.467658583082614,0.461524759201203,0.492243510469352,0.467128359055641,0.436718886749162,0.535642068190041,0.47086610999512,0.466398059371852,0.404606096057616,0.547281997130465,0.474080816907428,0.467291385235033,0.480095598457178,0.504007504586058
-890,grasp,12m,FO,0.469850455697218,0.465461876332479,0.515569648215346,0.372271811945954,0.478916864273843,0.46171782156221,0.481073504701507,0.486477750127008,0.470009651426845,0.438060354445578,0.532808731072276,0.467960877904714,0.468158752624508,0.400213300346635,0.552517258759267,0.483376417678165,0.47687472219822,0.480101790869004,0.510849390708007
-880,grasp,12m,FO,0.464671177630154,0.472290969907425,0.529744547761049,0.383976239714634,0.476707006034499,0.455787106397007,0.496404815238747,0.478414514198678,0.47044166657741,0.442296165584023,0.530026168315237,0.460070642258818,0.469126071802422,0.397133970219073,0.556660022256823,0.493962211324839,0.482206490769373,0.47958763795134,0.517470311698819
-870,grasp,12m,FO,0.459171100436553,0.481855024736723,0.541674892143905,0.398936129918047,0.472834860248256,0.449778411351727,0.50552654390491,0.467604927456389,0.468298722331688,0.448523814670744,0.527001160406288,0.451239605708887,0.469798584356121,0.396465897842861,0.562145379592476,0.500890081100025,0.483592886299905,0.480169224418741,0.521012294879374
-860,grasp,12m,FO,0.453531522918315,0.492401017676884,0.547693263190292,0.417885738186495,0.46856224244166,0.447157505979705,0.509286632937685,0.454022212860633,0.465007787962806,0.455539758056117,0.521319012296972,0.444708453806078,0.471425443547162,0.400211308895892,0.567557304880614,0.500541524400142,0.484239883719836,0.482568522479288,0.519680874223769
-850,grasp,12m,FO,0.447353074934296,0.50345814736201,0.548068393924586,0.438612214703212,0.462618844212988,0.447136234022329,0.512239696354027,0.439647204537493,0.462186785126597,0.461820585944635,0.512559203076208,0.442450953800411,0.475114106320174,0.408526172418523,0.568874953398648,0.491083677342175,0.486672138031132,0.484477206188772,0.516171476501354
-840,grasp,12m,FO,0.439727714287891,0.512954415707021,0.545161787813192,0.457560265159314,0.456166151903421,0.448660187335345,0.517888951864184,0.425168910255377,0.462581620172676,0.465766293563078,0.502624327380016,0.444788403975692,0.478620054337885,0.419537166792844,0.565130075734186,0.478314376481468,0.489892235819795,0.484771755802264,0.511064743820828
-830,grasp,12m,FO,0.43302515776998,0.520553605197562,0.541911911069619,0.47412281727307,0.450049171960323,0.447517816109266,0.522491914570704,0.411705612915883,0.46647634484168,0.468609138485034,0.489105428093964,0.451671231331976,0.480534085578912,0.431447705607426,0.558160251878481,0.465246907629999,0.492568257820667,0.484360256057289,0.503915880386914
-820,grasp,12m,FO,0.427645726201708,0.524698267921447,0.537885340879314,0.488127156039041,0.444491877599469,0.443287968648148,0.526241815508825,0.400962797539141,0.472687956926553,0.467897767417439,0.477077485181801,0.462309387307246,0.481086536481259,0.443272434781031,0.550654586737802,0.454018700846318,0.497083387258703,0.484737175367782,0.494903760552688
-810,grasp,12m,FO,0.423091598095698,0.525926725737008,0.532782210869564,0.501198902454413,0.442559458358365,0.438397514475516,0.52790529113574,0.391559023066668,0.48106652360965,0.464241386146382,0.469880448849926,0.473369257965891,0.477980233797136,0.454330119583565,0.542831823603182,0.447553719626247,0.503720596963928,0.48568916152099,0.489303488382623
-800,grasp,12m,FO,0.420954547042852,0.527211036577022,0.527896646356641,0.512022783672377,0.444540425512233,0.433682582983838,0.528127219262858,0.383932885251074,0.491867678841529,0.460065109764998,0.466418671226619,0.483021714509483,0.472159020088996,0.464597694153588,0.533282979534964,0.447255049912077,0.512895003491239,0.487126120146248,0.485689828186296
-790,grasp,12m,FO,0.422840858644361,0.529263000914934,0.522688393435108,0.518171109406915,0.446946127638785,0.429442154908389,0.525014812239728,0.37906114290052,0.503804918950088,0.459742099269893,0.469772860445737,0.491736064681044,0.467684513417124,0.472855464631453,0.523818023148783,0.452321454519397,0.520634177669563,0.487328657016202,0.48500665827283
-780,grasp,12m,FO,0.427381960383869,0.532229648891327,0.517128820849933,0.521504841485694,0.448417326030573,0.426995804965196,0.516937634573401,0.376586062725724,0.515816359972176,0.462846670603087,0.477105920885181,0.500429684460382,0.464832172203177,0.478596261079805,0.515770279938095,0.462670218687943,0.524656171647873,0.486034975029702,0.485722219042841
-770,grasp,12m,FO,0.433635343028427,0.535972159443945,0.512158528911579,0.52500792538666,0.450925036828629,0.427200658964954,0.504361262887547,0.375413075259497,0.529223457577253,0.466175032306319,0.483396094337261,0.508689950761988,0.464939263699514,0.483753124042556,0.507711860885733,0.475086795766646,0.519053658014098,0.482933372978686,0.48572637863098
-760,grasp,12m,FO,0.440541319979311,0.538447842315972,0.507548213836561,0.529069009756374,0.455937093866476,0.42920401635865,0.492544757292015,0.37533086924398,0.541662205241233,0.468328023166148,0.489275581061225,0.514722908562875,0.466868626815946,0.487404072722164,0.50014698769643,0.486294108119391,0.506780858310738,0.477920104935879,0.485013543347388
-750,grasp,12m,FO,0.448466844192089,0.539203358407812,0.504926622384636,0.535067412987219,0.462604700751438,0.428814513964851,0.48242667377347,0.375238331928507,0.553353304796012,0.469243174601127,0.496362648977461,0.517708568798418,0.468977257376179,0.491205895685536,0.496030403625321,0.493951950121514,0.493126549485934,0.472253994493356,0.483830296668736
-740,grasp,12m,FO,0.457430025363735,0.538463719391867,0.503609953044765,0.545355060906317,0.468216796605002,0.427932734896449,0.474356453825548,0.378585415485893,0.566169289516654,0.470466556806323,0.504255588193175,0.518206871022447,0.470625915634527,0.496055931912007,0.496104802429485,0.494495110958745,0.478672914983043,0.465394427724222,0.483508810342449
-730,grasp,12m,FO,0.464688263075293,0.536705639626404,0.505742963124886,0.555980909777662,0.469376087164986,0.427432527458264,0.466794665044071,0.386202097314017,0.57689924415079,0.474670405749736,0.512458851172383,0.51621574231164,0.470039098264989,0.501840442474221,0.499774887614113,0.490620299467641,0.465746427698492,0.459939010040029,0.484708234080507
-720,grasp,12m,FO,0.47237306386053,0.534483097687306,0.507833761007927,0.56245887405076,0.467031701600973,0.426642744096941,0.460206213498572,0.399074790285814,0.584039277160753,0.480099987512119,0.521400674966455,0.51281760909314,0.468599668432102,0.507060631477503,0.5066989065186,0.48577541095832,0.453781595161146,0.456085772189026,0.48844901121323
-710,grasp,12m,FO,0.481711242925842,0.531846511023333,0.505828648771873,0.565290109380525,0.463778969238668,0.428259509688437,0.455172976612338,0.416653816102774,0.588410947517169,0.482699447053819,0.529789172141251,0.509793330780038,0.466463252727374,0.511476651652172,0.516490554722775,0.485315486072833,0.441765367952232,0.453072450711886,0.493469423894409
-700,grasp,12m,FO,0.490384400080764,0.527730768443902,0.501064137073486,0.566928971183529,0.460725258907352,0.432354980447405,0.451434513072058,0.436315183021411,0.589271091035212,0.479672818994851,0.536583118184677,0.507971402635787,0.467166576591113,0.514471878214133,0.529406414575646,0.487401764075214,0.432709152405491,0.453593211852909,0.497521658181432
-690,grasp,12m,FO,0.495147376876506,0.522922844584525,0.497363157801155,0.567500897206405,0.459796031422426,0.438027518377082,0.450195861596549,0.453645623440821,0.585947536085005,0.470347301807964,0.540501348421126,0.5076500024423,0.470823373438094,0.516182701947192,0.540999713913223,0.4896568889089,0.429841964157054,0.457242855468455,0.502231627736026
-680,grasp,12m,FO,0.496936569518261,0.516727873406358,0.497195490046744,0.56846771770773,0.46090526749354,0.442753478904149,0.449903911096678,0.466388299961022,0.577828498524885,0.457902220246952,0.542380158534131,0.507972765197459,0.47654723154795,0.518462269203184,0.549169270569618,0.486526400690237,0.429381329825623,0.462062056699037,0.50731508921783
-670,grasp,12m,FO,0.496575908320561,0.511340804653333,0.497975355486162,0.570921676560312,0.461454557167999,0.446929007606855,0.446570815622432,0.474514480708542,0.565961170386395,0.44731386536467,0.542142528056693,0.509438843239549,0.483543936878489,0.520497581782511,0.554611829490272,0.473667546629559,0.430358459994528,0.467229880013946,0.513003338816805
-660,grasp,12m,FO,0.496193949189434,0.504688673705866,0.498715834296903,0.574821583944578,0.458935712192635,0.450370967042319,0.439557435791923,0.478656687395757,0.556213840273814,0.440073905924004,0.538371905015192,0.511713180527171,0.490410074434578,0.52346340965106,0.558713533561904,0.449820316767632,0.433093164936985,0.473519493306452,0.516879266409196
-650,grasp,12m,FO,0.49571126499126,0.494467503216319,0.501341193681374,0.576630796828811,0.455614891398951,0.45350711454356,0.43257754088925,0.48151260297227,0.551326135478743,0.436491342553573,0.53045179138342,0.513955284282362,0.49783975305172,0.528220502786043,0.561012463500121,0.427933384741879,0.437964261511623,0.479656879185671,0.517636299586766
-640,grasp,12m,FO,0.494722982293071,0.48119398448108,0.505164092215461,0.572584164239283,0.452130974958395,0.453716078777109,0.430459645040487,0.483178533701922,0.55029812869108,0.435456195243594,0.520902142033658,0.517303206982722,0.502821032522803,0.533060146254003,0.560852925910245,0.41453268902095,0.440812982134872,0.486420984894149,0.516470102323748
-630,grasp,12m,FO,0.49350398964101,0.468895363073007,0.510437877769964,0.561902041156397,0.448859930488917,0.451411418928998,0.435803824553755,0.483096972298766,0.550450406175238,0.435866181798969,0.510902723707682,0.519986695860067,0.502463099231667,0.535593669281705,0.557326325647569,0.41120298425444,0.44114305659011,0.494316441746205,0.511146962570265
-620,grasp,12m,FO,0.492537294844799,0.460348486871677,0.516974905111434,0.55085982289495,0.446596885877745,0.446746126044818,0.444627150103332,0.483039428902076,0.550019352778616,0.437141297500272,0.497098270296456,0.520323518695283,0.499427714326089,0.53491458045005,0.552692072782215,0.416225160949113,0.440476764917038,0.501706606769816,0.505093247495129
-610,grasp,12m,FO,0.491439017518482,0.456038060787691,0.521684013937522,0.542637077047397,0.446019059930997,0.442694904525505,0.453184612232781,0.48433577832591,0.548909699398186,0.437370412377085,0.48316176262163,0.518565215639701,0.494787780813221,0.53087052702455,0.546970574850956,0.428521886652231,0.438181787041068,0.506301533391088,0.496782425020479
-600,grasp,12m,FO,0.489583533188061,0.453019375523077,0.524256718583974,0.537301647406465,0.446128956509707,0.439919578887125,0.458728136125023,0.487844492075615,0.547099287708716,0.435366428227132,0.474205837895756,0.515821971712632,0.490175468312476,0.521967989623965,0.53964691247049,0.441358820515403,0.436792003475748,0.507628420111462,0.487425631058597
-590,grasp,12m,FO,0.486337260508037,0.45101786842872,0.526661990002763,0.533647594462046,0.446852896907459,0.437853168094955,0.462482556686822,0.491779334185569,0.544033098606791,0.432030567336014,0.468513356636096,0.513866621371269,0.481981111861228,0.512798106312902,0.529772222989716,0.448687274299956,0.434542119996257,0.505728326411218,0.47944006522674
-580,grasp,12m,FO,0.481533572819935,0.451616495793419,0.52928556713833,0.531919982501575,0.449077473270793,0.437507300243756,0.469129249107579,0.490640979423637,0.541299389368185,0.428008127290963,0.463536174548874,0.51384924503507,0.468492735561789,0.504640470689228,0.518224721095474,0.451644437215572,0.430958880948304,0.501806238512392,0.473175684748854
-570,grasp,12m,FO,0.476000064455312,0.452250396498264,0.535986006680587,0.534073745492035,0.454793968094162,0.438239956422956,0.477636513116193,0.483567329552588,0.538733329743771,0.423590136172151,0.461339074599062,0.516278942487048,0.452934901144179,0.497153300862028,0.506416288131179,0.45300681799965,0.428176961935018,0.497367793500316,0.470393825358963
-560,grasp,12m,FO,0.469372886157177,0.452375159615336,0.544293867834635,0.539345968395399,0.462918102017324,0.437630975573812,0.486746652668253,0.472476106335309,0.537225313964343,0.418580068551445,0.462467580429727,0.520002518668763,0.436949442070425,0.490355778131384,0.49549688457561,0.457084669004423,0.427282805633294,0.494441851731463,0.471266958079369
-550,grasp,12m,FO,0.462735963765819,0.452128454997357,0.551411655766235,0.54654899757819,0.468738510145598,0.431929118006466,0.497312771318554,0.463966834739745,0.539413480862463,0.414756028007914,0.464696107157813,0.522758456267788,0.419796143886462,0.482484261493902,0.486568059418378,0.461009771410262,0.42825382200096,0.494793177214038,0.472299621402973
-540,grasp,12m,FO,0.458845200431774,0.449089796725128,0.557504335216129,0.553259628408892,0.470552225950326,0.425386107481331,0.509062100200195,0.462433912557557,0.542497894474238,0.41405613012885,0.467747424430341,0.525026230549038,0.403674671706126,0.473110280635563,0.480039969223037,0.461990237298892,0.429556333441549,0.495292551198768,0.473166090177994
-530,grasp,12m,FO,0.457787089211834,0.444012657052301,0.561569106091681,0.555304956316171,0.46900900983708,0.421567860242306,0.519726807890744,0.467304053315259,0.544326532119143,0.416438929767464,0.467814429589265,0.527214815631648,0.390305800723268,0.464071812265044,0.474365217421145,0.458427405269729,0.430596598340022,0.493593788282299,0.475905755727412
-520,grasp,12m,FO,0.456679910487346,0.438984584247804,0.563634741970323,0.553143989070122,0.465529891694632,0.420443860525909,0.53028827698522,0.476841507970925,0.543066502763424,0.420939581724303,0.464329243378651,0.527876988820459,0.379560637092297,0.455276154913367,0.470594742103235,0.453940232940623,0.43257212226959,0.48917775724048,0.480190715375305
-510,grasp,12m,FO,0.455250694989738,0.434310859744036,0.565351462178131,0.547932741016792,0.46214753279521,0.423057773571332,0.535504122214109,0.486270254444758,0.539598763095982,0.428477941923898,0.461483994155272,0.526297388299991,0.373311939702384,0.446970149432685,0.469348425109405,0.452833727954531,0.431581444552325,0.483491345476149,0.48525264292434
-500,grasp,12m,FO,0.454778302633451,0.43122934876305,0.565902915892527,0.540651085511863,0.460449975661855,0.429115826045529,0.531295535092797,0.492478915243488,0.53590347453547,0.440445628042975,0.460233308219553,0.523041444023742,0.371381838757834,0.438992089053906,0.471255354083905,0.457870494080324,0.425002939873349,0.4800706352091,0.489459390896167
-490,grasp,12m,FO,0.455271786022462,0.429975625709813,0.560318017285186,0.529467911381011,0.461344637063923,0.436703429306361,0.520534792711084,0.495627019154952,0.531689666150738,0.452899661703043,0.459863689157853,0.51945729815949,0.374133323149194,0.431704379677394,0.473684601758949,0.467015650553265,0.419704408464804,0.478261945304345,0.491524909629857
-480,grasp,12m,FO,0.457188828111325,0.430824959763554,0.550949067682915,0.515034535468049,0.463427095551108,0.446036296547931,0.508270085245725,0.4982216109029,0.527148371926737,0.463534656385198,0.459955878847578,0.51690734766564,0.377227452461847,0.425964591230508,0.475508806580842,0.480285048801861,0.419017337856756,0.475970037735829,0.492675948831929
-470,grasp,12m,FO,0.457683964364742,0.43168347773362,0.53627129970026,0.498529926434103,0.464404274704913,0.456633983164252,0.496134040716356,0.501154661789744,0.521403447610115,0.47367449584354,0.457431703130745,0.516137181517676,0.384945974803144,0.421921346706315,0.478132538004515,0.493471843208688,0.426473643369915,0.47255496101819,0.492886563246336
-460,grasp,12m,FO,0.457345074359248,0.432642902524175,0.515692676660013,0.481529621173878,0.462917478841932,0.466791074184962,0.487098009517813,0.502477105917749,0.512603753653531,0.479874472963002,0.453241634714276,0.516623421941304,0.395685669809589,0.420036342255326,0.481339626068193,0.504359910126254,0.438506283356645,0.470524179170061,0.493260721829243
-450,grasp,12m,FO,0.456089099558425,0.434235521652824,0.492450444589987,0.465457060812157,0.460193771464349,0.475000781100016,0.480780864015123,0.501884863604068,0.504213414455648,0.480560189597892,0.447631051772434,0.516788720936687,0.409214261804289,0.420921573656089,0.486560655673187,0.511444962812473,0.45009740786277,0.471796477163575,0.493561984970406
-440,grasp,12m,FO,0.455338009949205,0.437230271200606,0.472008581224067,0.452504913498727,0.45662360815867,0.483126593570639,0.47601741299115,0.498764171784804,0.500132675544608,0.475968012275987,0.441370653851278,0.517106099999452,0.423340939513613,0.424634074911977,0.493047851017812,0.512930235910757,0.457034661826027,0.475483896071527,0.4928240567555
-430,grasp,12m,FO,0.454919739300092,0.44051823880562,0.456815831239794,0.441804743573153,0.452702943757545,0.489889621966985,0.471422561590937,0.495810433515821,0.498326557376274,0.466939568231768,0.434654313272149,0.518761009670012,0.437536898083076,0.429621273483958,0.4991981710158,0.513104423639962,0.458343375641013,0.480053399166899,0.489967322000506
-420,grasp,12m,FO,0.453926421520759,0.442484698605621,0.445713533179898,0.431183162085377,0.45024722282834,0.497076462270446,0.467188125196139,0.493376598842984,0.495513589360781,0.455581547514499,0.431050967909836,0.520830778354355,0.45472370665964,0.433258133437666,0.501978913561375,0.513166765799502,0.454070297428907,0.485710471893359,0.486797530551019
-410,grasp,12m,FO,0.453303402989695,0.44270221885852,0.436402943825254,0.424611788065669,0.449154985246527,0.503888287532444,0.465440854674589,0.490335205272994,0.491432174080308,0.4468965170125,0.429834403698263,0.522687411957604,0.477047563706767,0.436064557741524,0.501756874686182,0.511469722699875,0.450644681965435,0.490866855659,0.485277530110927
-400,grasp,12m,FO,0.453096484381812,0.442389979306364,0.423650036290768,0.423002203456624,0.446861490733693,0.510832204595931,0.465795267345474,0.486601883928683,0.487706400262854,0.442241165128775,0.433012127692368,0.52320182565008,0.502576069522411,0.440730456204244,0.499640747432878,0.507566233089748,0.451950377105642,0.493211447359911,0.482230245322427
-390,grasp,12m,FO,0.452897936554166,0.443396722643759,0.408799750522073,0.424791446179188,0.443895862195094,0.516556602489849,0.469318732936573,0.484579620711148,0.483276321298487,0.441824519726162,0.438321994159083,0.522733082595634,0.527304069121643,0.447262238290131,0.497366516181543,0.506870953873471,0.456746149346547,0.492023805838088,0.477444013874428
-380,grasp,12m,FO,0.453737322271373,0.444952716036814,0.39370326945464,0.427045473218546,0.438829076188102,0.518067127894593,0.476061278008954,0.486212541566965,0.479918134425939,0.446589160100114,0.444340074755692,0.521488983048469,0.548645009785502,0.454508705018417,0.497753298732208,0.509063505097112,0.463943327298517,0.487484108369564,0.470873143961025
-370,grasp,12m,FO,0.45484535755398,0.447636764616824,0.381911013353132,0.430278873545812,0.433688445657052,0.518766702779128,0.484828688330308,0.489655246213166,0.478394541112134,0.45633326888212,0.451312155391379,0.519150954786223,0.562243800123519,0.460273011384847,0.500079628990211,0.512523658096035,0.473174732345923,0.481147158039743,0.462156966801586
-360,grasp,12m,FO,0.455001232227284,0.452742693754464,0.374106879947718,0.436825715474761,0.42666987614794,0.519559265830163,0.490057899894722,0.494052151726054,0.47552057494866,0.467083607161598,0.460563209041021,0.516943419478653,0.565934900229865,0.465098642191946,0.503247572971065,0.517813537124985,0.480148712783676,0.474342240093959,0.454455414338584
-350,grasp,12m,FO,0.454128030706719,0.457037091796917,0.372165724003101,0.447339835516014,0.417779888814373,0.524139839997392,0.491480462504364,0.497987389505346,0.472912421766307,0.476200712829983,0.469799767813759,0.515828773101556,0.564473990220321,0.466766814876598,0.505814581282664,0.523481045080403,0.48257691813774,0.470029078119101,0.447301862292822
-340,grasp,12m,FO,0.453460332108414,0.458589766831462,0.375306861871455,0.458801997761992,0.410951001833569,0.530872622305288,0.490957398531629,0.501157600013779,0.470139805443705,0.482269205902292,0.475415298643358,0.514226848007225,0.561720475864575,0.465912842123772,0.507692393083512,0.528081601459813,0.480837803080154,0.469135797455374,0.441465825176463
-330,grasp,12m,FO,0.453664040505751,0.456578518968487,0.38100282735039,0.469532451687217,0.409193216008076,0.538388100801088,0.490846796893889,0.504777311182832,0.466926291379691,0.484228695312321,0.480135274922601,0.512067715590305,0.558176817317291,0.464550136839039,0.510131061795872,0.52906713863711,0.474337409312708,0.471243045803901,0.438600425966719
-320,grasp,12m,FO,0.453690735923935,0.45416786152639,0.388419592295622,0.478237753069528,0.412867045702064,0.549442817686976,0.49427506618364,0.508732575278358,0.461245690552975,0.485611183020058,0.483983065074941,0.511061092247425,0.553950310511916,0.464326890325197,0.512049387535572,0.521735453569764,0.462945629657579,0.473889579771934,0.439187610894907
-310,grasp,12m,FO,0.454142454664931,0.454034399982188,0.394797049199777,0.486527189539488,0.420887211676971,0.562948991817569,0.502029690155226,0.510262558035586,0.458245406600948,0.489167387101243,0.485670451990293,0.511021381244897,0.549713556994241,0.465510573784504,0.512456501639581,0.508647802712942,0.448537606784385,0.475946875003492,0.441811827316572
-300,grasp,12m,FO,0.454563955017358,0.456196722180432,0.39627717411893,0.49408458872995,0.430865980334984,0.573879988688787,0.512526470839746,0.508003777049135,0.460153657553869,0.493256599728738,0.488129815913394,0.511474470390582,0.547008432222197,0.466866127937391,0.510543326433763,0.496540047050393,0.43310951873561,0.480402286787965,0.447809035968087
-290,grasp,12m,FO,0.455014922458489,0.458415153091918,0.394911058849122,0.497962924389314,0.441392964464366,0.581900226339253,0.523849209507795,0.504018021783254,0.467769173286681,0.497250658715208,0.48843958085834,0.510251489245143,0.546414663365322,0.46815299036851,0.509057534917333,0.487738261084061,0.421450442857639,0.484780418719026,0.45550384993236
-280,grasp,12m,FO,0.45599455091856,0.461673829840378,0.394060021347792,0.500073904778673,0.4499527823211,0.587632213479354,0.5366812976204,0.501217788569002,0.479127124269674,0.501118122431705,0.489516669517392,0.508339908410081,0.545930032918173,0.469903358147253,0.508274953657887,0.480982045797756,0.414060110040965,0.486720818933805,0.463454630799814
-270,grasp,12m,FO,0.457169829731369,0.464951331934624,0.395726193677503,0.502396307322467,0.455457835285449,0.589308518570213,0.549306900441686,0.498187407083148,0.492980875634833,0.506055690555737,0.489698296472631,0.507808040165644,0.543386552271977,0.471745676408918,0.507813953259242,0.480014647429256,0.41256447694489,0.485986444530333,0.474721160914784
-260,grasp,12m,FO,0.457087830556064,0.465941077030634,0.399715267289224,0.505504922429067,0.459100545351606,0.585817132455275,0.560666832558484,0.494804528802607,0.50827187930273,0.512307736140887,0.488611226926044,0.508788151882649,0.538637702866643,0.474324212022238,0.505647872184541,0.486532311317347,0.415609379555474,0.484042772046961,0.49082463467934
-250,grasp,12m,FO,0.457740113057298,0.463672264467357,0.404619099977038,0.507882288348518,0.459021462072931,0.579606972785444,0.57288846524164,0.493517507392467,0.524315320163246,0.518137961255173,0.492208844514508,0.509625984595076,0.530214979951161,0.477935079947701,0.500354394594897,0.499618961223617,0.423453913251191,0.481155045229696,0.508439438409821
-240,grasp,12m,FO,0.459489518721884,0.460714885283345,0.407983282920879,0.509774080939812,0.455952446488329,0.574473471387967,0.583070044777554,0.493954247784964,0.541404801023018,0.525509947877142,0.505200753782312,0.510430427867822,0.518291325154035,0.481389222348301,0.492274072851681,0.511532955155467,0.433621846218431,0.476012719881959,0.525772955501415
-230,grasp,12m,FO,0.462357464928143,0.460132781754415,0.411961768328648,0.511301823004799,0.451022467184774,0.572140948008924,0.587493217633338,0.49580618050099,0.557868611519716,0.53113380200819,0.521643429440517,0.510072865747384,0.505007589760596,0.482788663398748,0.484616705881316,0.521273133317909,0.44671645978458,0.469076241324421,0.540104450806488
-220,grasp,12m,FO,0.466915480298418,0.459726576383137,0.417378783845957,0.512465815772765,0.445163647999082,0.571893666401036,0.591254742967545,0.49946929610395,0.570326304572329,0.531099985021439,0.537653214083149,0.508951432117619,0.492994062341415,0.481850749398614,0.4774841488153,0.527672565278661,0.463499755030058,0.462112005470523,0.552357767095
-210,grasp,12m,FO,0.472059563721815,0.459617896216828,0.422661214278592,0.512785437871787,0.441579017017529,0.573438018322141,0.593528969119002,0.504390825217249,0.577480338784352,0.524428122872244,0.551969560941168,0.509918620873775,0.482521819585475,0.479092055278585,0.47244660790561,0.53093015324864,0.480477126465755,0.454078613538883,0.561142034209499
-200,grasp,12m,FO,0.476672497331973,0.460187611228852,0.42620532194885,0.513091398576399,0.441857955185307,0.573860065932454,0.593697702457613,0.507014459618774,0.579447895650912,0.511744532735909,0.562875132270116,0.511765451889152,0.472170814222608,0.47576762727532,0.469764352142229,0.533850894357304,0.495458288837268,0.447514845333901,0.565514776914031
-190,grasp,12m,FO,0.480024524241625,0.461313996526625,0.428336364748758,0.515567309282534,0.444730259774637,0.57401183301537,0.59450405843525,0.507431092033762,0.579358138582445,0.496370292990204,0.567326419506472,0.514518181773905,0.464329326848404,0.474001408302681,0.467752377950368,0.537436151945174,0.508207566490802,0.44392863986121,0.566176958577498
-180,grasp,12m,FO,0.481526156378317,0.463882659374019,0.432311762999638,0.518739759716927,0.449308474899374,0.570463475825447,0.597100949780471,0.506026815165652,0.576801959527761,0.481103134584034,0.564663777532036,0.517358547467185,0.459024499767107,0.476541485657654,0.465815431232489,0.544459204232445,0.520141475808053,0.442950760911674,0.563237207757165
-170,grasp,12m,FO,0.482557848247974,0.466334608866353,0.435582812935947,0.522365440337109,0.454207840124704,0.563667339946242,0.602325038997511,0.504735244034537,0.571187975683946,0.467902740029992,0.558153061193894,0.518942561687478,0.456663442879809,0.482906114314025,0.462197485404042,0.548156922238756,0.530047652588118,0.445516295922563,0.556349378326855
-160,grasp,12m,FO,0.483972970862015,0.468571165217468,0.439961982356068,0.525854662314147,0.458901710865052,0.554704671880223,0.610280430878643,0.504333006469319,0.562608352464591,0.45643297403031,0.549667511218264,0.516880251218505,0.4549463853671,0.491553943494761,0.458823283386173,0.546959644586302,0.53628240835683,0.451049601767744,0.546583078574518
-150,grasp,12m,FO,0.485680159789551,0.469147117442287,0.447030809723275,0.528691694589889,0.466614143921835,0.545473632467521,0.622123356438962,0.50459954595727,0.550649001377768,0.445452958224593,0.541704035344957,0.512142732288256,0.453318138915126,0.499977452012467,0.458791494838781,0.542020741134813,0.537592458096824,0.457802022292499,0.534223284211018
-140,grasp,12m,FO,0.487611482275777,0.468602374706381,0.453252426889581,0.52653177757825,0.476755548491345,0.53448148192833,0.638094575249816,0.503298105220958,0.536365953075515,0.436411731997289,0.530515965715633,0.505253516094717,0.453531569193942,0.506501514376783,0.462269385965073,0.534612241348221,0.537484507579786,0.466460528144937,0.518019699314091
-130,grasp,12m,FO,0.489192808538349,0.470328288964632,0.456944641427948,0.518606539738183,0.488166534016461,0.521236679458057,0.653782050010271,0.498657035228476,0.522212001662653,0.429670369453808,0.513477945072112,0.495783861149354,0.452374316502424,0.513433516963596,0.467345497709443,0.527849979019464,0.537676080081703,0.477318041315432,0.501392800881292
-120,grasp,12m,FO,0.491000457214812,0.472245750641314,0.456744939587463,0.505484873794266,0.498941471094966,0.505737828306905,0.66717564813937,0.492837104560315,0.513730510786544,0.422017901404105,0.4951323707027,0.485217276787605,0.448605243933462,0.521580024522941,0.475080723864784,0.52120549313312,0.542348675103209,0.487930752149739,0.489387193597121
-110,grasp,12m,FO,0.493683158067629,0.473917015940827,0.453253164051205,0.491395545226184,0.509065203907287,0.48919608419377,0.67808877505698,0.488119470143328,0.508877254541317,0.413535389710317,0.47453365074675,0.47479757460759,0.444506433420201,0.530665452828981,0.484357831539229,0.513607881583662,0.549648338687206,0.49574364594077,0.483802812030184
-100,grasp,12m,FO,0.49588387105127,0.475434501040681,0.44846613178968,0.479236476097374,0.517677340074887,0.473954424543684,0.686848619458712,0.485062383059944,0.507810549349129,0.407580672456505,0.454709871347892,0.465414939858152,0.440160220098762,0.539880667070695,0.491813129557573,0.503839542911601,0.558102813718623,0.499573999243427,0.481773737524433
-90,grasp,12m,FO,0.497934572752657,0.474743961470801,0.446038526333423,0.470442231148139,0.525472226397913,0.460067754444684,0.691435240869484,0.48167270284522,0.507463194491841,0.405735268649863,0.436139776755012,0.456917320639909,0.435790097949022,0.548521964478287,0.496954812727143,0.495164829926919,0.564560446240681,0.501721443237805,0.479497792835135
-80,grasp,12m,FO,0.501311424670711,0.470802439200337,0.447633324964611,0.467954251912983,0.530511695399281,0.449404069835636,0.690139792492943,0.478767382646191,0.507569615296809,0.408087293989478,0.418395360846891,0.449573915175383,0.433074123643326,0.553472878922119,0.499452329939608,0.489986440057724,0.566044880522115,0.50320180686663,0.476659212361552
-70,grasp,12m,FO,0.507192155816518,0.466669365748809,0.450833893918192,0.468837691281032,0.531479971759186,0.441399793882708,0.680646407613832,0.477937466227946,0.505660303140127,0.415182495240306,0.400957328571933,0.44318056691543,0.431376400085164,0.553021818860864,0.500995449979977,0.487804107844926,0.561320019163918,0.5030494203175,0.472130835143086
-60,grasp,12m,FO,0.514271409265439,0.465436179387852,0.452559255810783,0.47316435992094,0.529752537496453,0.434997331615443,0.666409393007407,0.480735876052463,0.499198284574404,0.424707371175762,0.382723203771555,0.437159045628772,0.430642080949337,0.548971565490701,0.501866842177669,0.489431312697328,0.552640069593043,0.502508121721301,0.467802262377143
-50,grasp,12m,FO,0.520469419818876,0.465769031882735,0.452824055601923,0.482462633490833,0.526062848415299,0.430761632218853,0.650385858611317,0.488305176900817,0.489113946893636,0.431723449832271,0.368218934411179,0.432895805943715,0.43026503363122,0.543624621675577,0.500727346748665,0.494108001625654,0.545558019761626,0.502632477455,0.468501487819866
-40,grasp,12m,FO,0.524384201515447,0.465099680701258,0.45304469746018,0.493803227130301,0.522105928097075,0.42616876908525,0.632114922660957,0.498530260754624,0.479020707287202,0.435846848928763,0.362583661545084,0.429918831494773,0.430934976860913,0.536766183622421,0.498051402170644,0.50371084759051,0.543671199973506,0.503485826836726,0.473293137634415
-30,grasp,12m,FO,0.526053188631261,0.465923935460262,0.452819002911041,0.50375581692825,0.517193623577079,0.422805683919572,0.612277949597888,0.511594727458392,0.473296802321547,0.436663719690613,0.361991377530668,0.428125789243906,0.432490121417042,0.529235060392411,0.495233657085074,0.515866252393539,0.543752960683354,0.503285845542653,0.480145519307751
-20,grasp,12m,FO,0.52568903394966,0.467696735922633,0.453222040691175,0.511498860855452,0.511168511138843,0.421901527196362,0.592729317564142,0.524557647474075,0.472966443323856,0.435138005189931,0.364692810906547,0.427452517738226,0.435564005710705,0.522055644949639,0.492178674112348,0.529103570953255,0.544892788797927,0.502553777139332,0.487317465296959
-10,grasp,12m,FO,0.524086154355676,0.471531215967295,0.451638350929262,0.517859524617168,0.504441694367565,0.423414756541723,0.572378245920247,0.536643585654044,0.476390616062347,0.433653453321353,0.371607663678412,0.428322020678912,0.440150525948138,0.514581380298478,0.489609179637403,0.545025936863487,0.545711338501154,0.499506624837113,0.494869546453587
0,grasp,12m,FO,0.519950908847228,0.475281979417456,0.450416164506109,0.525388323063838,0.498381285384066,0.426850244317832,0.552855320766873,0.546719307518204,0.480012997804539,0.433912777822429,0.383591176111133,0.431100031840255,0.445951603634507,0.506571097550382,0.48712356938947,0.562792268834631,0.54428346319671,0.493510163468055,0.500823889772008
10,grasp,12m,FO,0.512895874413104,0.479203655090889,0.448622419320625,0.535586399486032,0.493128059001406,0.430167844368067,0.538605546234422,0.553022322215299,0.482969034223248,0.434358416424411,0.40058728317973,0.435459217958777,0.451035484645879,0.498738348780417,0.48506661819494,0.578278636930783,0.542171186393353,0.48693375343208,0.505222246970395
20,grasp,12m,FO,0.506343749438148,0.484304313692257,0.446193890080785,0.546322984317172,0.490374307415899,0.431522427820661,0.530809759650593,0.554850648590739,0.484215150279371,0.435150196117841,0.421398500951531,0.441740926434121,0.455442928959975,0.49150383321681,0.483893977576015,0.585290692121164,0.539789313189557,0.481518739908697,0.507736375668301
30,grasp,12m,FO,0.503445968240547,0.490242199756408,0.443798621284228,0.553978673496957,0.489936490652328,0.434120969969544,0.530782515586559,0.551347570342996,0.484169715095341,0.436782427898249,0.442382795709479,0.44862312857222,0.462623142703454,0.485219650597622,0.482709370918749,0.584206826781104,0.535308971853093,0.477869770559954,0.505735226635064
40,grasp,12m,FO,0.503794575031041,0.495386456695012,0.441388564651791,0.557690480623394,0.489022260485782,0.44111166324831,0.537840519464193,0.545046222502402,0.4866676764257,0.441070275355388,0.463460521666812,0.454905241517042,0.470063696194916,0.48019764743328,0.481758492579698,0.579211029087567,0.526848453400026,0.476967134878295,0.498234194882652
50,grasp,12m,FO,0.505398681515428,0.498990173065055,0.438765471147591,0.559020931855291,0.487561775909664,0.449284697134323,0.545057144592266,0.537143947389267,0.491817143611661,0.445559459333926,0.484384898423157,0.461317628508404,0.474936143599441,0.476657031383765,0.48086056640287,0.571812610264177,0.51356693911752,0.476981996211397,0.488559457608314
60,grasp,12m,FO,0.506797798406072,0.500615272789934,0.435130560594686,0.562148491491308,0.485859519204617,0.458395252689051,0.549508628219834,0.527075663425936,0.497896937620828,0.448341263977684,0.502670966765858,0.467990296815193,0.473377307558176,0.473551623381558,0.477679420900136,0.563514085870789,0.499506648858078,0.476658942747866,0.479416629047019
70,grasp,12m,FO,0.507198694658964,0.500911280212118,0.431981352536344,0.567418893589208,0.483879328551824,0.470446353556816,0.548876533848375,0.516365303609417,0.504013920313072,0.450120124336576,0.516248570302873,0.473696419850286,0.467163840094856,0.470079053944859,0.472002891417351,0.557487319344701,0.486308034521308,0.475636541651898,0.471926533357469
80,grasp,12m,FO,0.503777865740391,0.502547461441331,0.429952061804101,0.575642572514394,0.480006996713902,0.484068276553185,0.543533614528588,0.506649233816809,0.510406387128826,0.449753963464308,0.525121887068615,0.478753660030446,0.46211956684887,0.466537459265653,0.464472815903268,0.553293109598092,0.475764361071259,0.475781645828223,0.469874132871349
90,grasp,12m,FO,0.497705380282154,0.505995311911576,0.428786059168215,0.585742806245472,0.473237457421783,0.500049861707101,0.534876658980732,0.498615741728971,0.515626856672212,0.448378668036306,0.529797245210218,0.483832579006621,0.459726933308086,0.462158144862562,0.456185936168198,0.546057165911366,0.469209201929669,0.473969948333794,0.472962739434138
100,grasp,12m,FO,0.491945924599152,0.512143511406414,0.428224002064567,0.597911970868746,0.465941979887396,0.517423859229487,0.521927614956178,0.490720295176496,0.520685235074587,0.446756354336075,0.531831416541419,0.488519422382627,0.460528483605147,0.456552125968703,0.449093929698887,0.537029526021615,0.466847180679158,0.469886310559629,0.479170986140739
110,grasp,12m,FO,0.486450462623296,0.520811946599534,0.427596881677596,0.610832087374971,0.461144255271949,0.532304259522853,0.506879452040321,0.481378939051974,0.527253004585134,0.447144925883281,0.531810735308624,0.491713595253027,0.464018749973085,0.450396086091177,0.444318734780723,0.525679878371884,0.468805327081191,0.463001086212797,0.487299281745661
120,grasp,12m,FO,0.480918119350201,0.527605372621261,0.427342992073485,0.624610813113199,0.457545248890491,0.540636174067382,0.490072463732612,0.471156258316672,0.537041492637098,0.450974243299901,0.527350018855803,0.492243145917638,0.468479642862529,0.445264035130743,0.443410096246726,0.514914811063026,0.472077402319071,0.455246185854373,0.496580112097438
130,grasp,12m,FO,0.476338298463464,0.532364903333123,0.429148877619744,0.637439322767929,0.454059761109185,0.542870172618358,0.47789551224699,0.461593424548682,0.545679941770054,0.456753683721535,0.516328933337351,0.489974963892571,0.470966607688832,0.44178550715591,0.44556751657961,0.50787359691118,0.475242255930293,0.447822053481968,0.50526697703713
140,grasp,12m,FO,0.475310606765359,0.536407033786818,0.432362013780052,0.645319577314597,0.452218297226775,0.539621300761123,0.473882168147716,0.452125605699422,0.553115108818174,0.463025851539808,0.501834823090943,0.48678748676063,0.472701430526134,0.439502847014472,0.447709729219728,0.500563034068552,0.476131706765709,0.441064952299436,0.511689013193141
150,grasp,12m,FO,0.47529348165046,0.539836183043911,0.43475966254211,0.646372304877176,0.452135105766715,0.531887534786965,0.477274789578014,0.439803501316856,0.559574113742799,0.469370958790242,0.492211170100941,0.485186044393892,0.474132038915921,0.440730245035398,0.451217705391025,0.492168064352182,0.471684827141449,0.434655353884041,0.517762514263106
160,grasp,12m,FO,0.476482055643926,0.542008415101012,0.436887636096194,0.639496232089438,0.455617087418553,0.522035680013381,0.488399747118973,0.426549250715766,0.567587604166349,0.477272052870908,0.490571688606107,0.484476885491192,0.473628249139972,0.443036141648964,0.455884650260816,0.492591260774442,0.461117130196411,0.429699191534188,0.525852146556004
170,grasp,12m,FO,0.479201858485652,0.541062022144218,0.439537762644972,0.62844327572823,0.463037970854776,0.513573440787601,0.506148046040809,0.414698750597999,0.576953748062839,0.488192362760945,0.496588566877232,0.484264344984771,0.470404139682258,0.445274179378672,0.457822738145385,0.497325640523241,0.444408043383854,0.427616193701342,0.536610038132504
180,grasp,12m,FO,0.481025452075576,0.535494093750864,0.444537141518902,0.617206525571368,0.472891842939203,0.507458726734586,0.527292189307726,0.403672543333355,0.585584132953411,0.501979878440693,0.50311618695562,0.484091972964902,0.464629838514545,0.44664227187894,0.455690953282219,0.50554018804005,0.427155527742654,0.425968494312597,0.546967052267024
190,grasp,12m,FO,0.48182407847689,0.526464252166056,0.448947621668378,0.606011418156021,0.483050139750525,0.504975349355037,0.546958683795749,0.397585347270179,0.591255838375984,0.516928573184103,0.503970062428116,0.484414971600228,0.458149770013138,0.446259505826136,0.454288667626151,0.515422844061391,0.410920430878542,0.426621152919685,0.556072168979414
200,grasp,12m,FO,0.481073119050072,0.51657567329196,0.451242053663893,0.596887665396347,0.492620376985686,0.505146323233577,0.562761650930184,0.401876403856667,0.593022405819679,0.530681279801546,0.501174938814173,0.485344527823462,0.452785343285104,0.445947819275099,0.457187141546494,0.527166590120779,0.396081848986446,0.430001746076599,0.561687814914061
210,grasp,12m,FO,0.479279820343693,0.507701450989611,0.452819671738209,0.587404430042713,0.500697957897602,0.505833689058597,0.573943018849085,0.411035739243387,0.589504888673606,0.542400329400703,0.497259002202148,0.486340422770636,0.450443260346185,0.446967507507988,0.464109853165102,0.541047679357402,0.382478528320654,0.43525232626478,0.564827083006014
220,grasp,12m,FO,0.477467652789004,0.500611630013737,0.455234680489892,0.577758807790651,0.506730685156464,0.509102757806087,0.578135382963307,0.419483069445867,0.579760156892988,0.553331986974175,0.492935901023117,0.487851195798196,0.450526175818369,0.449554994412007,0.472884584705269,0.555842707674771,0.371196846196773,0.441660449133284,0.566791474634878
230,grasp,12m,FO,0.475361705957262,0.494908588256126,0.457282032965483,0.567544178317772,0.511614595868109,0.513029366124602,0.573745804319733,0.428716841312667,0.565569525165484,0.564043912786129,0.486768361036789,0.491676536366597,0.452921342467163,0.451601463337265,0.481828575254117,0.567728455622388,0.36220166398847,0.449082866438429,0.564882663593454
240,grasp,12m,FO,0.472978337655844,0.488356989795085,0.460008898973594,0.554752046273439,0.515076805891919,0.517241311298999,0.56007579045518,0.440045876813282,0.550042328700663,0.574616965207583,0.477870269595892,0.498431736277542,0.454743366696233,0.452277511721405,0.489275596237672,0.572748479163817,0.353978543236604,0.458170017473412,0.559402670552065
250,grasp,12m,FO,0.473809889696816,0.480322389556776,0.464541660633814,0.540556176673223,0.515261267698428,0.519007428155229,0.542411038423638,0.452028677813509,0.53276468163394,0.581391603548919,0.469684787421732,0.505318909793184,0.453313541647955,0.45225033422662,0.494431748194197,0.572309077880521,0.349114532074282,0.465848906944785,0.552299712908503
260,grasp,12m,FO,0.478429267761387,0.472417385062918,0.468895546668538,0.526451400977138,0.51334775131219,0.517559287656226,0.526480827886825,0.463441457351289,0.515748516675741,0.58343831664715,0.464126575436429,0.51013159124589,0.448792650479831,0.451895642775453,0.497357205651438,0.567103891619828,0.347661471364413,0.469840723290122,0.544874803279384
270,grasp,12m,FO,0.484446981912603,0.465312733988028,0.472180941998373,0.515650294130225,0.509940841643504,0.5138443854058,0.511667423558339,0.472291169312305,0.503299180099577,0.585151014194218,0.460589553521716,0.513998094116368,0.441146588858914,0.449357424609418,0.497999095197161,0.55742374807403,0.34765769782357,0.473059589475055,0.536464262860056
280,grasp,12m,FO,0.489426151735814,0.4587998322316,0.473985622005641,0.507127746503384,0.506140741357382,0.511511813049774,0.501103465978462,0.478377348987211,0.499140534999105,0.586761194505809,0.460340238015921,0.517411288031786,0.430968417141334,0.444915263258547,0.496176661584122,0.545674738104659,0.349566198697831,0.477180731369757,0.52651238134795
290,grasp,12m,FO,0.491999694283141,0.453811826381495,0.474818820673277,0.501702886083764,0.504979972699725,0.511665412340598,0.497269449302536,0.483995207654969,0.502582542987036,0.58716049582872,0.464025202084412,0.520055283232134,0.419809691104351,0.439282322197381,0.494264972639107,0.535472314019257,0.3557277579619,0.481771065900548,0.51768962361068
300,grasp,12m,FO,0.494382654199071,0.450045349706817,0.476166724400929,0.496913436747011,0.507040310316431,0.512647744911661,0.498512986432682,0.48633079831963,0.511189170869789,0.586600647640064,0.468167156323679,0.520490051340326,0.407401470703978,0.433505516784912,0.494735766156935,0.523556207784246,0.36591375921491,0.483365509375183,0.510789377456771
310,grasp,12m,FO,0.497050489244324,0.445748769459749,0.48055621416715,0.490920350632571,0.512331907198328,0.511778157410978,0.498347491241678,0.486267972314297,0.520629241939583,0.586380420676915,0.470924926565506,0.519800782926483,0.398126067440624,0.427889142317146,0.496105831607287,0.50903763606161,0.378181870544964,0.483047561200653,0.507854840880628
320,grasp,12m,FO,0.499695862482202,0.441875541868839,0.486246800916617,0.484295870148517,0.518513491385685,0.507539260587734,0.496208116165787,0.485101635282586,0.528547115006497,0.584988047825493,0.474628365614532,0.518375089947689,0.395900594757216,0.422548562997195,0.499380621026191,0.49280169150236,0.387510026375472,0.481826647856559,0.5059215539748
