Time,Condition,Age,ChannelPair,connect_overtime_LA_EEG_12_P04_CTS_MTH_chanpair_12m.mat,connect_overtime_LA_EEG_12_P05_CTS_MTH_chanpair_12m.mat,connect_overtime_LA_EEG_12_P06_CTS_MTH_chanpair_12m.mat,connect_overtime_LA_EEG_12_P07_CTS_MTH_chanpair_12m.mat,connect_overtime_LA_EEG_12_P08_CTS_MTH_chanpair_12m.mat,connect_overtime_LA_EEG_12_P10_CTS_MTH_chanpair_12m.mat,connect_overtime_LA_EEG_12_P11_CTS_MTH_chanpair_12m.mat,connect_overtime_LA_EEG_12_P16_CTS_MTH_chanpair_12m.mat,connect_overtime_LA_EEG_12_P17_CTS_MTH_chanpair_12m.mat,connect_overtime_LA_EEG_12_P19_CTS_MTH_chanpair_12m.mat,connect_overtime_LA_EEG_12_P20_CTS_MTH_chanpair_12m.mat,connect_overtime_LA_EEG_12_P21_CTS_MTH_chanpair_12m.mat,connect_overtime_LA_EEG_12_P22_CTS_MTH_chanpair_12m.mat,connect_overtime_LA_EEG_12_P23_CTS_MTH_chanpair_12m.mat,connect_overtime_LA_EEG_12_P24_CTS_MTH_chanpair_12m.mat,connect_overtime_LA_EEG_12_P25_CTS_MTH_chanpair_12m.mat,connect_overtime_LA_EEG_12_P26_CTS_MTH_chanpair_12m.mat,connect_overtime_LA_EEG_12_P27_CTS_MTH_chanpair_12m.mat,connect_overtime_LA_EEG_12_P28_CTS_MTH_chanpair_12m.mat
-1000,cane,12m,FO,0.47624722014483,0.469598389037525,0.473578287655456,0.506057919052503,0.546001476633654,0.493802787307466,0.521320052836012,0.411448120103183,0.49821623328243,0.552298424524782,0.451009012061094,0.606815862536757,0.551038392817951,0.558728266944474,0.504058534189509,0.621280884440727,0.492446616896743,0.538859055415188,0.434395120086151
-990,cane,12m,FO,0.477023904317832,0.464457037670983,0.480545822213076,0.502610285590594,0.544890016579621,0.490551723019674,0.51500629555267,0.410218286971225,0.498926310593686,0.55161793204517,0.455514906264584,0.60584672985075,0.552496995036661,0.559085396901476,0.505649371333038,0.626369820317177,0.49819323091034,0.542002456735141,0.434339412000687
-980,cane,12m,FO,0.478088666513798,0.459993592367943,0.489324719269218,0.498522750467216,0.543062775731795,0.484830131638586,0.509462171306898,0.409802135349356,0.499016413053823,0.550531420293472,0.459510068359804,0.604646784569915,0.553954182205441,0.558534515018291,0.506244274636331,0.631247451316335,0.504405552885961,0.544988192862782,0.434674321508615
-970,cane,12m,FO,0.478208601596983,0.456627246918638,0.498434995159424,0.492931635661094,0.540349508758236,0.476783820709185,0.505112086360438,0.410724054977007,0.498064296689337,0.548946448692007,0.462919833752366,0.603000703296636,0.555306974967251,0.557399594209198,0.505840815425638,0.634666646941315,0.510837959035171,0.54738304003956,0.435569492851703
-960,cane,12m,FO,0.477542423560871,0.454596496572396,0.506734089707142,0.485786241993744,0.537029611463789,0.467112819117878,0.502508969596001,0.412458214922459,0.4965947511803,0.546869254562647,0.465983543671854,0.60088223727451,0.556379729361985,0.555433852463708,0.504627883554883,0.635342487717435,0.518084270423857,0.549956479425043,0.43638694897622
-950,cane,12m,FO,0.475762203835453,0.453823898851434,0.51288523772718,0.477421402120958,0.533755359214746,0.456458548403691,0.501233957096997,0.414256937190908,0.495265877850139,0.543943071950765,0.468685117483509,0.598492651369302,0.557259009844431,0.552708981697452,0.502849112220357,0.632506433945829,0.525900575114918,0.552960965093582,0.437067768509495
-940,cane,12m,FO,0.473069210950989,0.453972584517277,0.516530563692319,0.468469424520408,0.530796152828762,0.445380525322486,0.500358646793266,0.416522184333588,0.494962917895351,0.540134959431338,0.470625555271166,0.59603798329783,0.558494436822459,0.549578101538149,0.500425526757384,0.62817048206952,0.534042617232138,0.556352915534776,0.438281975537113
-930,cane,12m,FO,0.46971393019633,0.454334051741769,0.518603224384051,0.459791684156019,0.528367285292602,0.433979691983721,0.500062902762336,0.418971525725553,0.49654831216418,0.53482951520172,0.471315601701861,0.593972333512226,0.559706580452746,0.546021706509709,0.497244490265605,0.623507828355773,0.541598009564219,0.55960650503875,0.440082415201287
-920,cane,12m,FO,0.466376547544545,0.454178859570258,0.520273029329094,0.451393562565185,0.526297125461647,0.423518976042017,0.500845281297687,0.421975836182562,0.501135862584965,0.528426418041678,0.472177856394749,0.592166320355152,0.560278258856933,0.542395967447035,0.493426533914049,0.619143934964452,0.547978891862167,0.561892457150564,0.442255633462849
-910,cane,12m,FO,0.463316513426674,0.453432172605785,0.522392763215983,0.441863651824417,0.524179489081556,0.414273476880263,0.503143951419234,0.425316718248956,0.509316674752893,0.52115678427912,0.473465782095368,0.590521991135901,0.560881289692309,0.538906166519037,0.490090104450115,0.615933841629637,0.552921945583654,0.563347173961923,0.444527442185956
-900,cane,12m,FO,0.460381394742029,0.45224683689416,0.525404069001541,0.432208039569029,0.522219133192387,0.406786299806506,0.506475467179871,0.428422571135646,0.521017161955081,0.513699498093404,0.47406348563568,0.588812674894953,0.561694004082113,0.535248728774069,0.487823546643029,0.613470188978765,0.556884012826498,0.563752768187269,0.447053042707464
-890,cane,12m,FO,0.45811675528246,0.450860305661729,0.527932595034574,0.423353500780427,0.520418055036611,0.401177546718655,0.510432750658579,0.431625960377442,0.534600069862176,0.506514794434817,0.474970611670454,0.587225198948617,0.562491432677547,0.531929822360939,0.486219539754281,0.611209509080283,0.559889729691872,0.563051977399424,0.449329718207791
-880,cane,12m,FO,0.457245418734661,0.449620630068161,0.530068551647053,0.415296524329777,0.518741692835624,0.398256052099763,0.513860869254782,0.435050100342102,0.549572912988202,0.500874775851493,0.476758368517911,0.585970786167908,0.56289893998626,0.529381311631096,0.484766402425703,0.608741327071326,0.562073577247074,0.561630240572067,0.450833350579035
-870,cane,12m,FO,0.458284165825847,0.449238326531138,0.531495684901575,0.407889317129621,0.517262731607926,0.397752793740975,0.516765359219286,0.437947361106656,0.565164465709248,0.496463453938106,0.4791838860204,0.585288498278827,0.562244080071503,0.527882200482406,0.483687529269338,0.605818347103892,0.563975528091809,0.559806939177438,0.452234137519741
-860,cane,12m,FO,0.459828365692866,0.449946335121126,0.531558087801596,0.401011037750275,0.51614444205933,0.399131997823404,0.519518120170966,0.440023319612143,0.580619187967547,0.493076343111154,0.482291890236915,0.585000462930159,0.561349291615054,0.52745754415121,0.482795279463182,0.602621571770687,0.565141505864123,0.557843216209674,0.454188442841727
-850,cane,12m,FO,0.461221838925867,0.451313302979067,0.531741354009269,0.395204296788369,0.515745289403728,0.401096445970518,0.523166459459205,0.441623114040998,0.595932850987164,0.490283110561152,0.48570581929202,0.584930689447616,0.561084752356286,0.528340382002337,0.481626433225635,0.599957568434525,0.565743088147588,0.555644089762404,0.457564088366449
-840,cane,12m,FO,0.462720590801415,0.45235916884812,0.531857446405314,0.391249089390377,0.516182704993823,0.402188890970505,0.526716159677354,0.443323763154079,0.610557838208864,0.487619695092275,0.489074528930984,0.585088869164332,0.561351649816242,0.530215062891368,0.480262710878607,0.598006310333914,0.565379760311979,0.552828944023384,0.462504770572966
-830,cane,12m,FO,0.46442819523069,0.453492202532669,0.531095575453413,0.389938467723271,0.51747003123068,0.402860320778588,0.53039115144451,0.445596305921645,0.625311647420198,0.484809008673543,0.492489229344063,0.584738218939745,0.562058773210326,0.53261511128067,0.478659063790992,0.596616113417974,0.563631465977106,0.549858894645046,0.468184630871807
-820,cane,12m,FO,0.466155548231348,0.454681427149862,0.52947685999798,0.390438308651769,0.519305056990239,0.40329882435392,0.534399638267516,0.448567558670156,0.638474738349972,0.481612867396939,0.495730121789144,0.584133439195975,0.562709926470316,0.535381096052924,0.476978981764846,0.596087424399197,0.561481032779654,0.547317194611733,0.474637675558956
-810,cane,12m,FO,0.468022218263425,0.455624694517762,0.527214848117574,0.392087017643958,0.520612165476546,0.403654957861466,0.539110726724597,0.451643180892577,0.649571453447736,0.477895006742198,0.499328567150112,0.58338599942863,0.563148051203987,0.53859618759552,0.47475904910607,0.596902323486305,0.558867852454112,0.544814009978416,0.481544341153853
-800,cane,12m,FO,0.469921121179707,0.456343758705546,0.524172815497362,0.394555220986289,0.520890081954131,0.403788889928941,0.543831332925614,0.454713570887043,0.65878595551327,0.474073032482199,0.503351339332398,0.582385977555517,0.563342694538949,0.542139584214728,0.472666040180052,0.598936619106379,0.555763741356062,0.542387669658476,0.489205851773413
-790,cane,12m,FO,0.471765249390559,0.457442606606923,0.520681750445091,0.397251718782969,0.519983102002641,0.404160810079238,0.547579383843195,0.458133738350071,0.666522551654503,0.470322814604703,0.50806780970484,0.580922413004348,0.563328683797336,0.545711819484895,0.471299939174528,0.601285624011222,0.552906524772942,0.539749507169843,0.498176853238442
-780,cane,12m,FO,0.473269653102856,0.45872301153703,0.517078884854611,0.399931480210421,0.518006399927655,0.405413247360664,0.55061427112888,0.461445017245371,0.672713204774881,0.467374812680488,0.513594633043004,0.579061630334418,0.56312776718116,0.549412027021154,0.471113786186707,0.603516409455282,0.550708266192921,0.536853921132558,0.506849180352085
-770,cane,12m,FO,0.473918821933317,0.460698404129017,0.513716353917207,0.402138296388843,0.515512444156771,0.407794158597973,0.552851572449796,0.463189595069615,0.676629958706125,0.464769776747533,0.519838870099888,0.576441161567236,0.562164343222446,0.553332371065719,0.471646647753136,0.604733551039411,0.549921567490795,0.534286270346341,0.515490641813625
-760,cane,12m,FO,0.473498755468483,0.463000420193887,0.510076845611843,0.404106978642159,0.512885360466871,0.411310237774041,0.554022692696499,0.463604727802661,0.678635211096767,0.462541567535432,0.525798025804196,0.573349739932127,0.56000649773935,0.557577287695392,0.472852878166236,0.604254889866313,0.548626646592484,0.532218875789654,0.524254047963046
-750,cane,12m,FO,0.472014383713109,0.465548568402146,0.505027225591675,0.405635288421473,0.510354319242917,0.415603547990254,0.55420130132246,0.462838379653695,0.679009368840292,0.460882959608113,0.530377667337008,0.570884526889104,0.556829955952193,0.561799077387187,0.474380911477314,0.601900661316169,0.545976150212736,0.530587131812512,0.532280968963421
-740,cane,12m,FO,0.469678893117458,0.468094407428054,0.498064990743731,0.40647896635782,0.507865174928936,0.419970819149327,0.553774791094324,0.461650370347034,0.677470830162386,0.459677954452823,0.533019201131226,0.569027344580617,0.553051435430204,0.565684874390431,0.476275000369069,0.597480338879213,0.542245762567089,0.529591466482925,0.539225248276184
-730,cane,12m,FO,0.46659422271785,0.47087362553511,0.489859726570587,0.406205007420872,0.505442528623495,0.424933363053022,0.552599151588294,0.460192189572477,0.673802472422124,0.459181055493848,0.534786438814034,0.567371940461463,0.54978944680063,0.569232326556381,0.478540887412373,0.592372417901114,0.53767827013807,0.529141386925223,0.545439350730565
-720,cane,12m,FO,0.463182560081,0.474092095792553,0.48113229199787,0.405164232554107,0.503381424207139,0.430007901578612,0.550475466585264,0.458894123603085,0.667275558617575,0.458318408753268,0.535484613625057,0.565794600258519,0.547474381671733,0.572298436698915,0.481080704007943,0.587491353512114,0.532290015145393,0.529169315009668,0.551991129031647
-710,cane,12m,FO,0.459640434521447,0.477901180807565,0.4728194291269,0.403737762094393,0.501455078294728,0.434832519674514,0.548170096035046,0.458533857024949,0.658745223736785,0.457580616529204,0.536157349524914,0.564091959823552,0.545873805823052,0.574633524488648,0.483336164574982,0.582986419935006,0.526055965440309,0.530041544591025,0.557814288017426
-700,cane,12m,FO,0.456877343807607,0.481630930190666,0.464969093099823,0.403108563166378,0.499826074148538,0.438625114439369,0.546070376999583,0.459088485480761,0.649280096843116,0.457508269848872,0.53670009636156,0.562375858926197,0.544009245356113,0.575991945931051,0.485095027480265,0.57863572325187,0.51944887990021,0.531686117292225,0.562286765462184
-690,cane,12m,FO,0.45520045270722,0.485741051211379,0.457345527645721,0.403254172870681,0.498784849331904,0.441684450713302,0.54381700448368,0.460420569336545,0.640177845479712,0.457551054440731,0.537386898303022,0.561101075626191,0.541766198817548,0.575931069470549,0.486351696612783,0.574823130359993,0.512883786513063,0.533606906968404,0.565006078947023
-680,cane,12m,FO,0.454202969826443,0.490048960048467,0.450325526886207,0.404216984130961,0.499264029789908,0.443347643346219,0.541210899803443,0.462734822374017,0.632660930936827,0.458506608930384,0.538111157983676,0.560391397769947,0.539154768428009,0.573927411041741,0.487532325607607,0.571531912563344,0.507159220637352,0.535592871946373,0.565464988513075
-670,cane,12m,FO,0.454220699231308,0.494472601102798,0.444594702111615,0.405432680700868,0.501387659712686,0.444255861551245,0.538194161543046,0.465565776228017,0.626706517252308,0.460171989470182,0.538709909685136,0.559966118147382,0.536063562187698,0.570258590090519,0.488890876305515,0.569251330431042,0.503160191122651,0.537363029492951,0.564069920604363
-660,cane,12m,FO,0.455662307011538,0.499368543892604,0.440894852916439,0.406977689973565,0.504711810532153,0.444932134402729,0.534186521963174,0.468792750522528,0.621890172002633,0.462566111738984,0.539550327642136,0.559653168735614,0.532780233401726,0.565587432767741,0.490149104826962,0.567495568270096,0.500415172973041,0.538830173538043,0.561998348686695
-650,cane,12m,FO,0.457574935267421,0.504334085780191,0.439819280964987,0.408389587444258,0.509314123847798,0.445564705225168,0.528774725928625,0.472281625678151,0.617717237420631,0.465856054813149,0.539733948320013,0.558993387168023,0.528958731520459,0.560490720917645,0.490945889708319,0.566228226410888,0.498989801783006,0.540107483413323,0.559822143236157
-640,cane,12m,FO,0.459236478479242,0.5086282748153,0.441851028611445,0.409770126158486,0.514974578727529,0.44498460565317,0.522400653040659,0.476012960204155,0.614546336945392,0.469794272094926,0.53870129585705,0.557898550646988,0.5244599336018,0.55496247393294,0.491527965536015,0.564676260350984,0.497780124537236,0.540727776479398,0.557727835424139
-630,cane,12m,FO,0.460315001181333,0.513083914031505,0.445474151198375,0.410872814261726,0.521847377810745,0.443611303287121,0.516034484075766,0.480097911991774,0.612147583467474,0.474494185993778,0.536339999541916,0.556771759124602,0.518834896059923,0.549246520199818,0.492612126549094,0.562426607038885,0.496181606642997,0.539965577454536,0.555850656703812
-620,cane,12m,FO,0.460982817341923,0.518304810436424,0.449722783915027,0.411147116726538,0.529985120585811,0.442461078156255,0.510492097603794,0.484220755806206,0.610270024424482,0.479196292426939,0.532242252853858,0.556011687718558,0.512429536025733,0.543692214680357,0.494254480110337,0.559553290511076,0.494346898855451,0.538151821820354,0.553991676373963
-610,cane,12m,FO,0.461596570393016,0.523417457879514,0.453738841143701,0.410290398853557,0.538803548888296,0.441304603841118,0.506376208933166,0.488186212893013,0.6086215523815,0.484657951579924,0.526770977574555,0.555979475464735,0.505426231136058,0.538472993487854,0.496803969789985,0.556609447283066,0.49123658600197,0.535558742962414,0.552133284885684
-600,cane,12m,FO,0.462574459268101,0.528775950330758,0.456623287352293,0.408202312515538,0.548132068956906,0.441064454142317,0.503495306031952,0.491351104524176,0.60659232484548,0.491364203261099,0.521152441466216,0.556389827466591,0.498357723675447,0.533978351211864,0.500594648044527,0.552840744053131,0.48796170645328,0.531406718432835,0.550169824377044
-590,cane,12m,FO,0.463370336798806,0.534937386350179,0.458877014796775,0.405468802573922,0.55775665770106,0.441815714966078,0.50188636883181,0.494058835722664,0.603978737529358,0.499969867456741,0.516821724200827,0.556360283457964,0.491709582836498,0.530320421737691,0.5047998723977,0.547624642087613,0.484147601161023,0.526885810692377,0.547571097915651
-580,cane,12m,FO,0.463679754895982,0.541574040648837,0.460349220105492,0.403158172179198,0.567377668118442,0.442888475966086,0.50157367038934,0.496429792513138,0.600915423766916,0.509427018487892,0.513352243400536,0.555917983243861,0.485602468611138,0.527079535607674,0.509538132417537,0.541398391437742,0.480074402150235,0.522492151895701,0.545100419956156
-570,cane,12m,FO,0.463871047359105,0.548759992627341,0.461214746629637,0.401714518030217,0.576855956807492,0.444139855138615,0.503689586767291,0.498657169803388,0.596966856644633,0.518995894069207,0.511057528127307,0.555043850602754,0.480773573258102,0.523796655209458,0.514748890842298,0.535132796574219,0.475793377696056,0.518624700895183,0.54319146446114
-560,cane,12m,FO,0.46405432992637,0.556320851523398,0.461679212428296,0.40057468035724,0.586247168046698,0.446833504552655,0.509355632699913,0.500509480960322,0.591510052817897,0.527941455546767,0.509563638428,0.553321781696021,0.47687336027165,0.520605396016321,0.519484916170494,0.529889895284486,0.472066060908633,0.515387601399566,0.542257064940991
-550,cane,12m,FO,0.464733691874513,0.564116467432345,0.461508143767033,0.399842206283226,0.59545925390185,0.449753208544807,0.51671734222526,0.501988083826456,0.5840897811729,0.536014495644755,0.50868211585846,0.551485233560171,0.474773662000254,0.517609698062922,0.523196136047197,0.526245406127663,0.468699244183118,0.513072551931854,0.541916876870537
-540,cane,12m,FO,0.465754299245883,0.571131142500118,0.460064159415611,0.400498153486097,0.605051060005246,0.452437566278075,0.523408708018988,0.503783537710305,0.574767478251716,0.542173891460917,0.509054195097796,0.549345809235456,0.473614030570829,0.514298625854607,0.52510554986668,0.524193667846507,0.466270214401786,0.512148694935111,0.54253725418354
-530,cane,12m,FO,0.466648560399116,0.577700473173238,0.457977073392673,0.402477438885584,0.614630884507512,0.454850814652095,0.528298504002287,0.505334093324553,0.562952681039409,0.546086028861788,0.509728174098415,0.546403379765846,0.472697540668563,0.511059782801658,0.525358103531377,0.524733671774355,0.465234910070607,0.512264214027596,0.544293812838314
-520,cane,12m,FO,0.467597614038103,0.58351661494282,0.454721490947099,0.405701609067914,0.623657814338852,0.456976361193002,0.530708740550542,0.506569705150814,0.551402887787208,0.547584891160692,0.511529840199113,0.542973134851353,0.472585769226376,0.508163868853486,0.524291907361603,0.527368813634317,0.465035706710837,0.512848516817313,0.546253345950375
-510,cane,12m,FO,0.468958060008281,0.588669158525188,0.451016127176685,0.410398558937811,0.632291713912133,0.459891841839387,0.530631647664867,0.50786124415724,0.539888908158616,0.547281406829552,0.514619207360169,0.540032540308339,0.472533603376509,0.506409453371794,0.522996630895188,0.531085658851791,0.465666477944611,0.513387912413483,0.548277769025683
-500,cane,12m,FO,0.470250171811446,0.593455962185566,0.448130072046431,0.417590050724713,0.640398017148058,0.464305159761891,0.529259316594027,0.509571560845378,0.530042130050848,0.545482086605726,0.518627761336596,0.538315224490041,0.471888290223793,0.505518345058066,0.522366649896511,0.535877259322594,0.466720693878609,0.513143244793007,0.550943825536713
-490,cane,12m,FO,0.471793753335323,0.597346168247405,0.446554355605538,0.427627643903601,0.647504938384261,0.470148949519743,0.526678718682642,0.511251814782214,0.521644588834724,0.542354318813954,0.522450977406079,0.537551760980124,0.470275951650174,0.505050299773968,0.521530724477248,0.54165949631745,0.467625240586339,0.512474311155321,0.554473076679786
-480,cane,12m,FO,0.473729693431137,0.599843172371043,0.446672693122948,0.439287545585398,0.653503474599693,0.477115947448622,0.52405358463852,0.51237908179889,0.513155193173986,0.538910593753197,0.526329740316569,0.53705250741682,0.467457779132425,0.505032953234613,0.520656269697668,0.5474611425351,0.468323723963844,0.511537629859487,0.559154952646304
-470,cane,12m,FO,0.476271730501327,0.600985489507888,0.449250686406197,0.45157638772319,0.658457224704097,0.484032787448456,0.521164765849153,0.512882586569164,0.505083243115647,0.535839418203022,0.530428630772917,0.536663549939253,0.463630233676409,0.50520644158044,0.519123149913952,0.552264512692289,0.468862941669667,0.510429420396894,0.564657761244693
-460,cane,12m,FO,0.479438141620637,0.601302584230672,0.453198413233283,0.463850340511971,0.662308586663765,0.490777192371973,0.51857047168244,0.513032637342254,0.498699696429477,0.532238705298834,0.534330735796798,0.536380220567779,0.459085748761102,0.505766809473418,0.516630056707192,0.555566978388134,0.468959069140936,0.509055735412074,0.570306709231884
-450,cane,12m,FO,0.482794105158965,0.600824989264212,0.458382656526757,0.475752391536795,0.665434453158069,0.497487335588237,0.517526450671771,0.513059864274576,0.493166105988726,0.528493607452766,0.538536015039801,0.536400498949413,0.454173051988411,0.506504463921932,0.513349167532749,0.556349139393166,0.468768404644408,0.507928223437392,0.57516874601904
-440,cane,12m,FO,0.485465521132251,0.599992300541903,0.46434265130392,0.487175651588827,0.667901599456007,0.503343878439662,0.517707024054747,0.512879226094174,0.488095062486243,0.524728064208665,0.544134350028214,0.536517184016025,0.449310654649828,0.507340900658555,0.510379016381426,0.555156930312052,0.468887763120377,0.506394738727998,0.579483447787549
-430,cane,12m,FO,0.487164669300275,0.598371710527589,0.470102859910854,0.498238989572511,0.670038415241963,0.507479177672806,0.518317637688635,0.512606487134194,0.483424243232757,0.520796902679357,0.550696938190059,0.536691108649839,0.445120567218435,0.508180611771099,0.507365404906128,0.552601500942751,0.469870913434714,0.50423014886808,0.583046245787568
-420,cane,12m,FO,0.488117242881291,0.594988397471283,0.475596015417147,0.508679782855112,0.670856615236566,0.510393026165539,0.519768168557076,0.512509381181356,0.478384854343372,0.51618430390698,0.557783492484779,0.536933361062818,0.442545945634082,0.508756192907432,0.50471927403598,0.549030654800508,0.471853117587257,0.501758278744905,0.58578083365967
-410,cane,12m,FO,0.4879793860134,0.590613889707734,0.479856761792418,0.517614704251409,0.670962617704442,0.512211135251313,0.521952295518124,0.512880582975362,0.472848985868998,0.51089075862265,0.563599788711828,0.537213138060026,0.440360708998749,0.509264575646961,0.502890600487326,0.545436549156278,0.474828736678126,0.498806648044312,0.587906553480073
-400,cane,12m,FO,0.486739801207539,0.585206149728231,0.48352775942718,0.525471656013231,0.67002688367963,0.513727352833604,0.524580693027028,0.513431497083405,0.467983370875977,0.505599974363294,0.56766928797897,0.53755908893739,0.437949810595357,0.50996782412868,0.501462127843254,0.540806577396843,0.478507851025427,0.495354422361324,0.58973406152231
-390,cane,12m,FO,0.485358004534954,0.578044694096342,0.485988053703013,0.532367789919515,0.668069583745617,0.515607813818221,0.526762323530661,0.513353735650953,0.462768963030432,0.500596778538985,0.568331143216323,0.537625139601421,0.436072853427244,0.511102601814761,0.500913302091774,0.535090996670863,0.482909575327849,0.491409879441603,0.591146067832307
-380,cane,12m,FO,0.484748817024745,0.569287194449113,0.486285563844283,0.538037504907931,0.665254087456051,0.517005352645139,0.527320308863651,0.512356013303204,0.457151765667424,0.495758790920954,0.565065628266583,0.537076745458926,0.434729865694529,0.51270941238029,0.501384906228218,0.529488755009978,0.487956155605431,0.487624484472593,0.591826393718747
-370,cane,12m,FO,0.484497656052184,0.559265502096199,0.485598890034703,0.541954371271932,0.661240836441903,0.517383440878074,0.526759761080288,0.51069548937396,0.45176130775221,0.491028030456923,0.558663112954539,0.535799723323968,0.434091946613113,0.515092875124145,0.502562918364655,0.524795082745689,0.49345423449831,0.484696548802136,0.591218027498719
-360,cane,12m,FO,0.484724204328929,0.548875084891555,0.484261734386781,0.544109803263978,0.656061250293477,0.516345650098647,0.525374223699507,0.508842850991001,0.44680247909789,0.486384931963115,0.549010219232947,0.533987465498293,0.434679789610284,0.517983340108809,0.503999708018233,0.521683784298949,0.499133736732014,0.482887771871431,0.589207547915037
-350,cane,12m,FO,0.484723299468243,0.538738545553581,0.482739104338245,0.544786483320842,0.650152847975601,0.514170414155141,0.523504974438167,0.506678783110369,0.444541927492307,0.48211586514308,0.536351937699059,0.532266025747757,0.436315658059097,0.52105604968788,0.505381579864311,0.520205333232011,0.505303765270896,0.48231513216867,0.58693682510394
-340,cane,12m,FO,0.483691035718128,0.528642931828378,0.482461787819244,0.543824958026853,0.643899557625578,0.510099723906849,0.521730995877191,0.503962737182583,0.444856287609611,0.478555932823096,0.522186640585957,0.530833070254206,0.438396367401971,0.523700313214296,0.506905487989832,0.520306021829309,0.511605458480492,0.482285777355754,0.585351721060155
-330,cane,12m,FO,0.481305542120837,0.518081551970028,0.483284938208216,0.541886152621773,0.637669183471709,0.505426494271682,0.519014077992742,0.501134380163736,0.446610836674999,0.475933405849371,0.50653428584314,0.530069677024883,0.440735561753184,0.525439412191679,0.508770559397694,0.522639801828381,0.517930418777507,0.482508239949119,0.583887841736925
-320,cane,12m,FO,0.478438659713661,0.507360392238398,0.485011597100927,0.538741168278237,0.631461010179023,0.500995851878248,0.515294660443872,0.498371731212839,0.449266642160003,0.474484540176834,0.490468167670699,0.530357961729305,0.442860040677272,0.526416104250291,0.510489853667446,0.526592258301952,0.523658959015724,0.482387373787842,0.582441617894045
-310,cane,12m,FO,0.476156498275631,0.496892811057104,0.487094008428847,0.534763916210612,0.62522407441984,0.497044245867805,0.510553594278235,0.494824667111173,0.453377372560888,0.474611937873561,0.474734040188383,0.531236693860898,0.445036782512507,0.526577627248721,0.511789665796351,0.531548321435223,0.529049755736067,0.481564699004269,0.580964372956986
-300,cane,12m,FO,0.474573029199814,0.486698570619162,0.489734344312015,0.529932012240207,0.619216437719937,0.494078730511029,0.504764068407958,0.490831995059678,0.45831834378917,0.476572693052097,0.459353429028969,0.532477622705111,0.447108130782189,0.526178231241004,0.511840535549528,0.536612574032351,0.53455127693861,0.480230184821063,0.579120023078352
-290,cane,12m,FO,0.473816740491281,0.477116469655694,0.492789622365904,0.5238039679795,0.613645224382322,0.49249473833926,0.498729596617059,0.486114699124231,0.463341034439835,0.479766457660567,0.445649103948448,0.534371484228804,0.449125028843343,0.525433761474935,0.510166333319253,0.540856579173999,0.539811765479026,0.478275737405061,0.576271237123592
-280,cane,12m,FO,0.47383341194457,0.468000317405812,0.496061378986409,0.515750155353313,0.608578894539791,0.491902206269265,0.492945643363349,0.481414497027097,0.467446834998138,0.483619943100531,0.43474010362494,0.53656862507647,0.450780503388628,0.52452759602471,0.506763383566615,0.544298209790718,0.544726485657229,0.475451547759265,0.573140299982888
-270,cane,12m,FO,0.474611899158554,0.459312684297402,0.499282437348364,0.507062857603218,0.603762446468244,0.492124279075616,0.487131355328053,0.477405222047587,0.470509434937966,0.488328465800153,0.426462927468111,0.538770341209123,0.452573009795296,0.523488744100705,0.501444532249917,0.547300772614118,0.549564100382306,0.472268209335869,0.569820065920908
-260,cane,12m,FO,0.476814981033662,0.451556183547134,0.502220143549241,0.498886883552174,0.599039038728725,0.49219625317904,0.480953553124798,0.474443684595468,0.472863954751825,0.49372463730125,0.420190267538691,0.541304266657334,0.454858279582032,0.523040992617095,0.49465232376368,0.549964091010473,0.55420388423365,0.469351120323751,0.566436378355547
-250,cane,12m,FO,0.480608685841184,0.445144743807413,0.504962178086868,0.491261890149816,0.594137393981405,0.491753078173778,0.474644339858343,0.47275842791702,0.475269601586743,0.499196067622129,0.415917192866964,0.544251351040837,0.457708142947338,0.522674813482186,0.486717591335235,0.552497670337249,0.558230133478435,0.466938187515639,0.563306011899396
-240,cane,12m,FO,0.485206338216536,0.440406226423266,0.507387471071816,0.484033106310156,0.588962916944172,0.490265434760347,0.468910757348478,0.472009108761547,0.478094728189854,0.504607930439318,0.413063080832349,0.547139462864508,0.461492698003435,0.522258053131282,0.478295152687193,0.555099030737546,0.562689232143258,0.465148729663682,0.559988090542513
-230,cane,12m,FO,0.489921820422209,0.437019257310266,0.508903961632058,0.476629359107059,0.583726118088249,0.487544277024366,0.465303968808874,0.473195805270281,0.483382149945414,0.509088238584736,0.411363692594484,0.550551423249276,0.465902539391783,0.521507162819446,0.470512434831577,0.557987743819847,0.567461950660575,0.464182810674981,0.556417311755458
-220,cane,12m,FO,0.494983518365726,0.434723535386721,0.510220421047433,0.469714781063968,0.578574592685931,0.48418232004632,0.466051721791639,0.47571145210501,0.490487623144954,0.512910083953523,0.410408456296336,0.554699480330916,0.470543516945717,0.520391001857853,0.46400478584226,0.560705079361651,0.572181803438937,0.463978989424888,0.552881993903456
-210,cane,12m,FO,0.500692972503611,0.432626167978731,0.512458837342901,0.464007397974532,0.573440129146173,0.481263792303412,0.46807602547269,0.47885484971143,0.497866054320801,0.516113350039605,0.408546030015313,0.559263361661478,0.474798545115135,0.519085362587189,0.458795785969275,0.563064686630478,0.576644072910609,0.463775096230278,0.549695830497841
-200,cane,12m,FO,0.506844460844801,0.430598604882383,0.515623097532246,0.460046586095358,0.568220983548801,0.478913298166502,0.470600384237531,0.482197353650134,0.505409640196497,0.518861523578023,0.406623442486243,0.563352667337505,0.478593447644043,0.51814891121911,0.455151936849601,0.565068684894306,0.581044596296944,0.463871465408598,0.547195326867289
-190,cane,12m,FO,0.513247847625037,0.428576161249071,0.519805605694179,0.457144288269551,0.562492063039622,0.478226308048985,0.472325197420153,0.485304932170444,0.513528751362607,0.521393062044433,0.403895169250364,0.56654051094522,0.482387719894779,0.517268379821353,0.451803782768174,0.565967449321526,0.585294509531201,0.465442753784453,0.545342679918153
-180,cane,12m,FO,0.520238448185348,0.426388965670672,0.526118523685894,0.455089338809024,0.556447301949112,0.478805069312513,0.473241176495728,0.487888110836793,0.521584873959781,0.524210558536139,0.400157895959672,0.569067282545048,0.485882169324852,0.516601716790425,0.448620067692055,0.56468125594305,0.589180299504285,0.469291241712215,0.543878743080617
-170,cane,12m,FO,0.527476544551141,0.423787472870734,0.533023806079484,0.453894687066121,0.549966260333489,0.479369818449443,0.474494803861568,0.489715101699247,0.529623994423306,0.526792145798609,0.397056669639652,0.571717407342642,0.489225625853955,0.515775523173799,0.44528573426446,0.562011775983549,0.59334297049556,0.474137936215854,0.54247188656346
-160,cane,12m,FO,0.533659781109717,0.421528642149683,0.539125266955714,0.453386692626275,0.543305882149774,0.480129329032904,0.476164618848097,0.490978216421341,0.539487296545095,0.528941772994394,0.395148160592701,0.574376961757868,0.49241708917848,0.515126618226391,0.442572450691434,0.5590820984287,0.597237467736294,0.479513476905839,0.540662616220109
-150,cane,12m,FO,0.539173712171322,0.419502005942159,0.544391408207143,0.453315412259076,0.537665569867373,0.480825563172424,0.478859609489582,0.491976107834587,0.548595624772768,0.530954944338414,0.394900455327955,0.576393863382062,0.494916856545719,0.514491024295309,0.440731676771771,0.556450908241761,0.600954692217382,0.485040586423823,0.539373219716076
-140,cane,12m,FO,0.543990573979702,0.417581044734342,0.548932140281823,0.45353211726434,0.533231125109687,0.480580682054538,0.48299742285972,0.492120077990468,0.55605596051039,0.532448665412264,0.3965794100053,0.577697422457289,0.496509913901386,0.51342579709727,0.439761564758565,0.554015301645788,0.60384795745117,0.490689127108932,0.539523638879315
-130,cane,12m,FO,0.54878602660522,0.415270767984344,0.552452554903881,0.453519198004758,0.529631830382774,0.479648770573784,0.487618581138616,0.491787588290942,0.562097536502326,0.533527601399875,0.399809969776789,0.578153318721637,0.496718383184155,0.512026872708567,0.439988797364895,0.551706883806199,0.605881486507837,0.496816387445416,0.540773492832405
-120,cane,12m,FO,0.553755306606799,0.412994240953478,0.554542839933612,0.453247913229709,0.526536464047086,0.478313118498495,0.493052944329533,0.49043652632956,0.565923748588231,0.534450456291748,0.405025363737922,0.578222884171848,0.495359008690136,0.51060549672641,0.440886256968845,0.550118865575107,0.60706613688494,0.501454731090309,0.542699589761771
-110,cane,12m,FO,0.558183766032953,0.411691207139704,0.553690041624787,0.452416801384402,0.523875046249173,0.477024678842154,0.499548965095229,0.488311910104321,0.569267691108699,0.534208898892213,0.412476968398229,0.578289630172762,0.493773273670435,0.509079676796635,0.441926794764523,0.549068566146764,0.606678842208166,0.504893847779325,0.544764296802305
-100,cane,12m,FO,0.562040535500362,0.411528931784232,0.551639369321831,0.451460240059531,0.52180681669298,0.476208287603253,0.507415051047561,0.485904870125811,0.572522119554443,0.53268537946265,0.422148686777147,0.577871656726469,0.492262879394063,0.507925053430607,0.442934772985514,0.548575185086882,0.604850951960933,0.507387542340446,0.546331618910775
-90,cane,12m,FO,0.565720088035804,0.412924618142614,0.54879020410958,0.451011390728926,0.520200759595234,0.476751092409322,0.515432072722149,0.483654213189283,0.574020538958786,0.528915744531348,0.433968832775007,0.576688907595725,0.490619768762754,0.507184905798285,0.443830732088033,0.549000461047166,0.602255626738778,0.508326135107294,0.547700354154043
-80,cane,12m,FO,0.56917929846802,0.415529625810326,0.544950976995168,0.452159948198318,0.519210962022198,0.477768158155216,0.522634584852309,0.48212717336984,0.573889737093636,0.522988464904255,0.446902054676177,0.575142328769335,0.489476417354796,0.506320395012882,0.445333036222811,0.550526960944352,0.598749815317873,0.508296091365359,0.549593897864702
-70,cane,12m,FO,0.57172461409548,0.419441089251801,0.540706798074656,0.454317034326032,0.519468673053536,0.479129076410406,0.529297415940916,0.481079858585454,0.572849611464926,0.51511826849821,0.459686027779678,0.573183230415002,0.489136904213556,0.505183955099928,0.447177230782958,0.553037056432125,0.593978443525712,0.507543897553672,0.551740761698267
-60,cane,12m,FO,0.57302739270068,0.424643603026398,0.536660034798372,0.457272454576713,0.520400862820087,0.47968120707277,0.535170656999998,0.480126700776375,0.571286063682753,0.50593906438517,0.472070501978946,0.570759488747306,0.489602889685912,0.503861352377534,0.448591583292433,0.556991823171067,0.587598376639215,0.505884084646207,0.553698139952818
-50,cane,12m,FO,0.572585093953323,0.430254955397888,0.53261166710599,0.460894984975837,0.52134237086706,0.480816577448243,0.540801839900912,0.479211865942204,0.569790894902109,0.495819857482325,0.483427191078743,0.567712095543512,0.491114664218002,0.503205217813378,0.45018706482394,0.562528222437175,0.578925147680334,0.503493708651507,0.555303680748685
-40,cane,12m,FO,0.570394586062377,0.436394666707138,0.528198032419438,0.464750637175506,0.521774517636396,0.48217822670946,0.5441678896978,0.478213486680674,0.568898435046263,0.485774942634984,0.493481606773993,0.564167650895619,0.494154368739213,0.503388408582008,0.452883580716954,0.569518706071911,0.567942536509952,0.501571196905299,0.556072685969761
-30,cane,12m,FO,0.566831948155941,0.443020802946151,0.523510100702089,0.468532914426914,0.522376111997378,0.483700513034624,0.544678402687298,0.476619345003434,0.568384796652115,0.476184196888022,0.501410558777421,0.560003885915133,0.498900114899186,0.504009414800864,0.457033909174028,0.577333807519126,0.555193763612189,0.500643969617567,0.556536529528792
-20,cane,12m,FO,0.561734190195727,0.450457838786318,0.518607175770192,0.471968741474528,0.523768292584854,0.485085007328899,0.542383097661682,0.474688176974353,0.56875983942486,0.46736019791727,0.506519690009627,0.55529677705449,0.505241897380966,0.504722386230239,0.462551266258058,0.584999246699336,0.542145975756349,0.501527276252507,0.557107397050846
-10,cane,12m,FO,0.556044642114357,0.458669844229466,0.514162834384253,0.474478252866674,0.52628513789008,0.486119711518305,0.537276975457902,0.472072139848361,0.568979737102706,0.459155352613116,0.50982066849981,0.550210871742837,0.513334307975907,0.505280986614828,0.469527538277114,0.592989214237961,0.529571818636629,0.504176270451541,0.557790205842405
0,cane,12m,FO,0.550808827479209,0.46723371616593,0.509714149359669,0.476013322658325,0.529596898139786,0.487707144577595,0.529652651742613,0.468982070960266,0.569562817171547,0.452558938868677,0.512157520199621,0.545051873001582,0.521849821209848,0.505810843395319,0.477075533089158,0.600993353296364,0.517933855970012,0.508117402763951,0.559477485988804
10,cane,12m,FO,0.545979233769639,0.474959101381729,0.504570722686129,0.476715059209848,0.532775994466497,0.490303091517493,0.520054839987193,0.465745411612745,0.570477924591815,0.446909915776122,0.512396802775458,0.53982776434725,0.530637917410041,0.506298263923169,0.484866534459448,0.609042914293151,0.506816130875623,0.5126974444661,0.562729251063011
20,cane,12m,FO,0.541384716515565,0.481033960135379,0.499171551814675,0.476450893663954,0.535734537259355,0.493602650539621,0.509153846591648,0.462886614657314,0.571862173985811,0.441774308504587,0.511928093131448,0.534574744195607,0.5398340848835,0.506757872585564,0.492593127236355,0.617246275822395,0.496224307243532,0.517763551151125,0.568218415336273
30,cane,12m,FO,0.536680325369075,0.48547869921807,0.492894247102403,0.474927575453322,0.538432398243286,0.49684769863041,0.497326484875358,0.460720870938218,0.573531931533987,0.437214678983003,0.51221334140557,0.529262868107945,0.548142048320243,0.507364146834248,0.499252460027977,0.625423477782039,0.486561394395848,0.523188794682767,0.575818037985159
40,cane,12m,FO,0.531504335764879,0.488272848991697,0.486804575937731,0.472414031765265,0.540307424798859,0.499775277819744,0.485514488718713,0.459825344826434,0.575054600921249,0.433051460935128,0.513742460426417,0.5239298189319,0.555130817444036,0.507680885245251,0.503771582935334,0.633539174033945,0.477941062548779,0.528491835612787,0.584813429828369
50,cane,12m,FO,0.526701693662996,0.489730936256214,0.481650491007304,0.469080245391482,0.541394858701109,0.502182618665346,0.474373377753468,0.460114848326456,0.576440394139049,0.429912495774674,0.515589148730646,0.519038839531213,0.559810046318379,0.5074301018869,0.506132854233147,0.641404891143793,0.470111067520036,0.533903215649182,0.594413923150399
60,cane,12m,FO,0.522509362771169,0.489528854707646,0.478516289216037,0.466368140535073,0.541264933742423,0.504992979778086,0.464172335459271,0.461205264732348,0.578394886689868,0.428129965779622,0.517690852983406,0.514712174120982,0.561859238291441,0.507243174136231,0.506818496129107,0.649365900266759,0.463221956533156,0.539405444919975,0.604068310281214
70,cane,12m,FO,0.519145135131785,0.487830568683362,0.477655173580628,0.464974563507169,0.540409036110685,0.507884137354902,0.454898003848687,0.463171009367772,0.58118710227699,0.427471990732988,0.519695455922215,0.51068898382488,0.56134812993643,0.507206483344126,0.506799821458322,0.657353377229656,0.456950741918112,0.544992223373967,0.613084955431792
80,cane,12m,FO,0.516532534794446,0.486086623020428,0.477890264012636,0.464967391819934,0.539299191257648,0.510128208638958,0.4469352579634,0.465823676226919,0.584235690300203,0.428632885883295,0.521195661499174,0.507075188156747,0.558583817251303,0.50689735753718,0.507593103258704,0.664980830896488,0.451658890035152,0.550180673305343,0.62090267578086
90,cane,12m,FO,0.514131054422291,0.485399141342907,0.477992624810702,0.466005149890862,0.538023500189681,0.510848656631326,0.439700091557984,0.469437690623055,0.587718854230441,0.431854399512679,0.521753234760386,0.504472206831005,0.55425643346222,0.506368713923637,0.508631397346693,0.672177631619276,0.447248005381195,0.554785997892495,0.627591772499305
100,cane,12m,FO,0.511326064414892,0.485792532722941,0.477900503210714,0.467262852913627,0.536933908813775,0.508824724971789,0.433045685808926,0.473694497386405,0.591893742330332,0.43647589072145,0.522022544507437,0.502917324877801,0.549214421765903,0.505840611760317,0.509637659937777,0.678962507228373,0.443618990081506,0.558650771483831,0.631715413523433
110,cane,12m,FO,0.508159996479765,0.487085609570292,0.478414048519002,0.468455493031189,0.536069586295783,0.505692820173767,0.428582388443565,0.478701339922934,0.595531131428058,0.442221726698832,0.522399480067441,0.502220933143659,0.543542876850439,0.505899225902008,0.510295405052159,0.684341193924694,0.440844200174275,0.561594859075919,0.633521592573284
120,cane,12m,FO,0.505293448211294,0.489369292980009,0.479332404746193,0.469293524507479,0.535251467593354,0.502454202163987,0.425297102671189,0.484649529913696,0.597942384237283,0.448774441076037,0.522443548854912,0.502225101080753,0.538351198770915,0.506190658943251,0.510657937002826,0.687137811288602,0.439094067369574,0.563506208871197,0.633717498965517
130,cane,12m,FO,0.502014377051569,0.492407939942622,0.480710337411412,0.468975769271798,0.53445569046556,0.499140258398138,0.423298765584266,0.490688137661443,0.599473694547691,0.455197023945607,0.522357535206594,0.50291670875059,0.534590212776375,0.506542012059086,0.510717140813714,0.6878636947447,0.438362559283659,0.564410118828543,0.632249930614614
140,cane,12m,FO,0.498272271543389,0.495754177196044,0.48223824811703,0.467481008375067,0.53389628589681,0.496392219054185,0.422975445993191,0.496022745552052,0.600000753104389,0.460620415942225,0.522883892672789,0.503848832336557,0.532638815700895,0.506377164276191,0.511107721183461,0.686532920497183,0.438934265570333,0.564395558250527,0.629015725715124
150,cane,12m,FO,0.494745476099643,0.498960590416359,0.483439075433351,0.466289117399675,0.534057901020397,0.494340009902214,0.425055119702163,0.500719807972252,0.599177488633898,0.465208039926715,0.523034578596826,0.504575130479347,0.531901873291435,0.505972176558679,0.511981087981892,0.68358896248251,0.440652592438551,0.563669354501343,0.624402644982444
160,cane,12m,FO,0.491354062608234,0.501728902079314,0.48412017080181,0.464428728625323,0.535271826136362,0.493741799137196,0.429454974026068,0.504750958277231,0.597903435131957,0.470233524299151,0.522572158508249,0.505500988249154,0.53194121239225,0.505339489316246,0.51193577684926,0.679040885355418,0.443310097512763,0.562296560130025,0.618893457396815
170,cane,12m,FO,0.488432176495188,0.503782733287947,0.48428836646155,0.463037316492015,0.536700048184999,0.494344184035843,0.435211389895353,0.508077292835945,0.596191707798829,0.476014346966632,0.519934207639462,0.506887810004054,0.532806041759478,0.50513566663285,0.511018012777604,0.67319884492811,0.446722282119396,0.560798288403599,0.612131164700845
180,cane,12m,FO,0.485818837015952,0.505400190503357,0.483682696499513,0.462662625788436,0.537397739276675,0.496284320755568,0.441559477004529,0.510723222367927,0.5938420089119,0.48220449647123,0.514593910459024,0.509020727309383,0.534445724869208,0.505161742129288,0.508562992358723,0.665495043380214,0.449997113304101,0.559240038655015,0.605145687779898
190,cane,12m,FO,0.483386849118319,0.506522391167803,0.483524102830293,0.463693927386008,0.537442259140141,0.4993237985691,0.447745544584282,0.512539121756186,0.590096194915159,0.488380911429565,0.507534854244415,0.511533905353033,0.536635668533867,0.505390197669328,0.504468698278458,0.655411082852264,0.453077090643744,0.557334631110275,0.597457259348781
200,cane,12m,FO,0.480676238145245,0.507428494588328,0.484686978004344,0.466419696216344,0.536569690495841,0.502949238219319,0.452978553632973,0.513645763260789,0.583772355570505,0.494436974976089,0.499632020016453,0.514476279941979,0.538957128262199,0.505558338278929,0.499571079848978,0.643993166627333,0.455857630547735,0.554894240001714,0.589116894928314
210,cane,12m,FO,0.478014685123351,0.508402931255183,0.487331467164731,0.470555626300557,0.534698740037022,0.507038035915233,0.456446097126269,0.514730380522348,0.5745137569345,0.500170800313197,0.492036982712737,0.518247372228972,0.540824285846827,0.506097458468416,0.494675435208925,0.631972281377136,0.457970867598302,0.552054435814095,0.580321340251811
220,cane,12m,FO,0.475572148670887,0.509199335056746,0.491102746168984,0.474706354325484,0.532103985252721,0.511304793644074,0.458398953862008,0.516163198189544,0.562904304345147,0.506216968057263,0.484931244821016,0.522315163920904,0.542560503252509,0.507338350268636,0.489827808590911,0.619965129833191,0.459631085336719,0.549149825173314,0.571292011419961
230,cane,12m,FO,0.473485242229924,0.509429198968934,0.494774039234147,0.478935971061958,0.529370071457845,0.514678145721943,0.45903803244967,0.517352162496745,0.548257855922646,0.511796785978383,0.478986796944627,0.526231414425607,0.544170677226808,0.509261243876162,0.485205885341016,0.608037367725006,0.46124396464187,0.546183847710054,0.562084505694126
240,cane,12m,FO,0.471944298871369,0.50988728770037,0.497519201326986,0.483470924451298,0.526316099053188,0.515450894270178,0.458931342031645,0.518671489922623,0.530526485321184,0.516992556074969,0.473942790970545,0.530129834006229,0.545356487649147,0.511825727810477,0.48061787881902,0.5964202896985,0.462089983181063,0.543256069937828,0.55315766207555
250,cane,12m,FO,0.471002325547907,0.509693804304333,0.500046530505236,0.488455076851927,0.522711100126322,0.51419605078011,0.458784330484222,0.520694337759026,0.511078828717615,0.521724113145042,0.469572839729286,0.533344028622022,0.545587288206839,0.515358031151975,0.477243946918149,0.585771042703153,0.461754055088689,0.539958571536508,0.544444401652722
260,cane,12m,FO,0.47053936285743,0.508909603361833,0.501919449074675,0.493968908575068,0.518911742673574,0.513037547585086,0.458848705668826,0.523289248326436,0.491782058165926,0.525305654105718,0.465791352009176,0.535322079128014,0.545224985624767,0.519891178254055,0.475354651571071,0.575806392619154,0.46098481406256,0.536568243574906,0.535950233853862
270,cane,12m,FO,0.470294620982877,0.507814815649606,0.502696642535087,0.499008682207724,0.514757299633278,0.512279692590987,0.458919132039008,0.526086736898654,0.473471417622542,0.527638989257664,0.461675386267833,0.536137574510548,0.544452370308823,0.525678192209857,0.474610547684763,0.566707374076259,0.460517545602204,0.533072696121451,0.527479116816828
280,cane,12m,FO,0.4703518877012,0.507197766408139,0.503120704990323,0.502645347414139,0.509938972279242,0.512438973879589,0.459333154443776,0.528933417097038,0.456495920835847,0.528786512496747,0.456783218900838,0.535571422259849,0.543620515187079,0.532100872272684,0.47492146948323,0.559104536483964,0.461399354469855,0.529511687249656,0.519014179440195
290,cane,12m,FO,0.471410798019714,0.506825041465287,0.502027924563849,0.504735144309761,0.504985651643048,0.514150349983003,0.461382559136616,0.530962185646728,0.440907135595529,0.529623889951366,0.451318365398568,0.533752522351578,0.54239640962672,0.538692168013529,0.475247037935831,0.553696799601221,0.463314390325916,0.526077842178756,0.5110271851852
300,cane,12m,FO,0.473082434351789,0.507018233491872,0.498560677805685,0.505754667506144,0.500248802892917,0.517205578800527,0.464729435277841,0.531998699261703,0.426129309568173,0.53066786966095,0.44540883851856,0.531209396612314,0.540704480327621,0.54496022616152,0.475713310660411,0.550208676713523,0.465855083716736,0.522739259555468,0.503991132169639
310,cane,12m,FO,0.47516363770524,0.507300046294657,0.4932496498097,0.505958635976894,0.495612062568518,0.522409482825511,0.467943108770053,0.531915017134961,0.411694424634659,0.53207565454231,0.439501827566901,0.528587283093918,0.538476010487601,0.550422976362915,0.476245932644038,0.547752293696916,0.469322988320578,0.519198675881214,0.498242983125725
320,cane,12m,FO,0.477645614258288,0.507475664719603,0.486015255482492,0.505587855844693,0.491881649405199,0.529518586060279,0.469680649693918,0.530202003465658,0.398394990146589,0.533091531969077,0.43445980459681,0.526268267182719,0.535477820360405,0.55522483236881,0.47725873525404,0.545240707765099,0.473637739609307,0.515827738352585,0.493507122744781
330,cane,12m,FO,0.480012021363743,0.507358936805939,0.477370798537041,0.504707608303633,0.489142322140614,0.537902227864258,0.470415080804641,0.527306180009554,0.386527339329202,0.533757047712978,0.430653939161967,0.524221750015767,0.531682791281862,0.559748290209683,0.478232920790224,0.542929839813348,0.478719139559403,0.512127842185252,0.489334854051487
340,cane,12m,FO,0.482125529986778,0.506632965800251,0.468236730324639,0.503888694658329,0.487415455666314,0.54654259340929,0.469926878058419,0.523957822865239,0.376753710179504,0.534402761019535,0.428472967540454,0.522654076888056,0.527797919721383,0.564427696244522,0.478915456092167,0.540744238275819,0.483753081248511,0.507628355632515,0.485742186398988
350,cane,12m,FO,0.48448367056019,0.505166717075927,0.459205292170774,0.504851916330363,0.486513784604442,0.554776450719696,0.469710639233911,0.519995666931911,0.369221853542872,0.535175462744053,0.42768160765505,0.5218393765688,0.523720688635158,0.569108886451611,0.478832275530701,0.538662497556789,0.488226029040284,0.503082822143194,0.482333951836829
360,cane,12m,FO,0.486518406541643,0.503419864428648,0.450703580658375,0.506533234722902,0.486488913772015,0.562133253506481,0.470352185922812,0.515217817282499,0.365677626715135,0.535863893958239,0.427637264040957,0.521801187789793,0.519198515545882,0.57357643858715,0.477705361155,0.537663307978988,0.492157140305824,0.498770359935017,0.478707752569469
370,cane,12m,FO,0.488369647092398,0.50178991101367,0.443426309239174,0.508459550329842,0.487568783393523,0.568826591740703,0.471703734647633,0.509786354635911,0.36519880369191,0.536468182793812,0.428270107680982,0.522130306545573,0.514365709657813,0.577596488187198,0.475518848475436,0.53735895978517,0.4951675981733,0.495323228255522,0.475035268129705
380,cane,12m,FO,0.489741488094097,0.500628900978723,0.437600531290515,0.511058471432119,0.489599223214653,0.575195604940476,0.473823359719079,0.504327015604421,0.365638099660179,0.537236792397377,0.429646509066882,0.522446626067898,0.509404587353972,0.581553890133477,0.472672775069462,0.537537077799073,0.496827490365891,0.492955727811116,0.471101792165597
390,cane,12m,FO,0.489925447913479,0.500256778179096,0.433215442663512,0.51395839105985,0.492991529796307,0.581587382130032,0.476482320092534,0.499156906566951,0.366462500545554,0.538433998271106,0.431725436032387,0.523170484530306,0.504782557012,0.585013483101971,0.469413530254162,0.537224510746316,0.498474667461324,0.49215396592382,0.467557785873718
400,cane,12m,FO,0.488634550470485,0.50139520616173,0.430517434622268,0.517172469441537,0.497118591793812,0.58841457782273,0.479287820906688,0.494677697836436,0.367616888847907,0.540030332333353,0.434685426706407,0.523755667023675,0.500840679718727,0.587701330897292,0.466391666838264,0.536013760682745,0.4999288896277,0.49298323241908,0.463947235028474
410,cane,12m,FO,0.486627499988768,0.504479998577559,0.429507030424958,0.520389913658231,0.501766412914953,0.595019739479358,0.482711131513934,0.490869432672074,0.369546240881403,0.542270934406216,0.43849984252239,0.523562080016043,0.497871291394919,0.589115795768418,0.463573203147526,0.533438465533778,0.500240582509206,0.494786162472761,0.460973614171697
420,cane,12m,FO,0.484018052325765,0.508532055998131,0.429625042146468,0.522954546395643,0.507454669399319,0.6015318497986,0.485783027253469,0.488013970838342,0.372564940319282,0.544821525963638,0.44413787732672,0.522925677631104,0.495219012103282,0.58882987933674,0.46052600943591,0.530067132859096,0.499206870718289,0.496645239154602,0.459131402210611
430,cane,12m,FO,0.480645340449454,0.51293236864442,0.430755828853743,0.524253414547893,0.514047560874383,0.60819100404669,0.487668380647189,0.486029681723049,0.376436739687487,0.546226232616285,0.450784341429215,0.521694504741288,0.492285433154647,0.587002088765772,0.457239286889443,0.5264927517401,0.497134589992744,0.49761972399553,0.458021164214509
440,cane,12m,FO,0.475773332806473,0.517292045284584,0.432490486023336,0.523715777667638,0.520898442115379,0.615445289508857,0.488980083625049,0.484684873636839,0.382023494931911,0.546228376689382,0.457336910291037,0.519759175407889,0.489008092215196,0.584017425958378,0.454121539523214,0.523434789730253,0.49407944852619,0.497556999038318,0.457417520010623
450,cane,12m,FO,0.470044520136372,0.520740932983031,0.435143076814798,0.52179732779637,0.527576659898567,0.623144189570695,0.490816037446469,0.484114128347117,0.389158060615448,0.545525038777373,0.46394430714926,0.517202237297143,0.485680459803522,0.580444598238536,0.451313442867167,0.520842095426934,0.4900320882209,0.496521969740011,0.456847739005365
460,cane,12m,FO,0.463842205722009,0.52353345579207,0.441087527839854,0.518962294934419,0.534105712078475,0.630836380487925,0.493956253460845,0.483691540832658,0.396448667334708,0.54403214997092,0.470965449792536,0.513874387540923,0.482638419651788,0.576397805181245,0.448883972492514,0.518435765190624,0.484858262588839,0.494909807870795,0.456934657218122
470,cane,12m,FO,0.45757031583855,0.527059208793175,0.448635517102275,0.515269483453046,0.539702693772146,0.638593404000965,0.498743926543339,0.483680545766153,0.404156508456708,0.542278968901514,0.478849889040992,0.510042631408566,0.479839872647584,0.571739888491855,0.447297610451051,0.51721067372398,0.479193029631141,0.492956573134164,0.45715787484708
480,cane,12m,FO,0.451269191241286,0.530733018937901,0.456452727000678,0.511379213374013,0.544297309832369,0.645733946314029,0.504192069268642,0.483820557093738,0.412036666356816,0.5403620453498,0.486881309214116,0.505669582764861,0.477477361977547,0.566460139971662,0.446664610677816,0.516739494948684,0.472972683194225,0.491278346598207,0.457391331916378
490,cane,12m,FO,0.445128289716934,0.533307368155196,0.464551504546575,0.507820153605209,0.547765871699524,0.651931386295372,0.509254717815121,0.48397395293585,0.42079123974234,0.539083751875319,0.495358464152737,0.500807527348017,0.475611214261163,0.560830463093489,0.446792116445717,0.517418539030838,0.466584062582596,0.490487088610699,0.458329164743535
500,cane,12m,FO,0.439699929490544,0.535017588220718,0.473773827360138,0.504237014366819,0.550576605371147,0.656278359593408,0.513594395250573,0.483466032128298,0.430180514640965,0.539720027749164,0.504144189170381,0.496065190441936,0.474348656948499,0.55512185809879,0.44796587348762,0.519554853109479,0.460897469113313,0.490602158800957,0.461207020980399
510,cane,12m,FO,0.435082591897341,0.535445551048241,0.484193089392917,0.500615924744703,0.552328252003791,0.657948924193264,0.517989718925882,0.482706455500258,0.439626428156886,0.542037158430506,0.512900350500935,0.491657622933055,0.473654335135287,0.549188473005895,0.450829838800135,0.522683328224722,0.456782562464627,0.49163401690053,0.465860395390024
520,cane,12m,FO,0.431958161470779,0.534024274709957,0.495393772159091,0.497614923006886,0.552693230903632,0.657082838223557,0.522924074166831,0.482382102126385,0.449548112638486,0.545892776678625,0.521076665173529,0.487582084837462,0.473694900696946,0.542548963996729,0.455494004349907,0.526364466904419,0.454475505306401,0.493189913416886,0.471239991488747
530,cane,12m,FO,0.430147448031024,0.531618047524845,0.506711865008256,0.495078202868729,0.551407561582162,0.6541409260565,0.528965764960898,0.482782043784243,0.460155089865765,0.550937891088184,0.527844761608718,0.483690517260729,0.474508360548296,0.53549202523423,0.461886329699728,0.531176789554283,0.453467772558841,0.495201511496025,0.477922486983341
540,cane,12m,FO,0.429222597097198,0.528635446490852,0.517308635709097,0.492889048127313,0.549495666373495,0.649475232427019,0.53387037974257,0.483645583375788,0.471202438306204,0.557302733581903,0.53266338099811,0.480793698345083,0.477205618171071,0.527893653107859,0.469396378954066,0.537725745534115,0.453258519276999,0.497166411723336,0.485057910353704
550,cane,12m,FO,0.428764168635978,0.525088847221871,0.527020485601912,0.490669666988587,0.546793914081104,0.643122339383271,0.536606930172235,0.484717394439724,0.482512232561607,0.564295933485453,0.535087376988056,0.478248699476068,0.480988512368375,0.520605715403309,0.478019700419272,0.5441059452168,0.453577458776634,0.498204148562246,0.491608193624679
560,cane,12m,FO,0.429399911112615,0.521132715086717,0.535419279966016,0.488621175949164,0.543061874680111,0.635593636042206,0.536087657711684,0.485345452718174,0.492655045903305,0.571397894018275,0.53614754855145,0.475432080252149,0.485615461623817,0.513949761127693,0.486735357633947,0.550861924883399,0.455204260450059,0.498632704011967,0.496887602607281
570,cane,12m,FO,0.431613801374225,0.517189516555172,0.541744936537489,0.48671007357371,0.538159208083365,0.627277511652648,0.53262669886319,0.485007533294426,0.502023508035871,0.577497732042739,0.537522317074871,0.472602655208612,0.49099708308345,0.507964412732294,0.494237654760033,0.557997118315608,0.458093680992117,0.498289937616304,0.500948081139859
580,cane,12m,FO,0.435595305586561,0.51335997509557,0.544882794707975,0.485458058217779,0.532582417219606,0.618973254316917,0.527326097444391,0.482755032579819,0.510425665013986,0.582509447832561,0.541235850409045,0.470296520313893,0.496686959004616,0.502769090984654,0.500421132486413,0.564165636705593,0.461612691554923,0.497504558548189,0.50338063556469
590,cane,12m,FO,0.441101277531066,0.50962919364574,0.546335875164522,0.485684398114483,0.526430983735815,0.611267366637692,0.52117877412094,0.47929396288158,0.517791091764832,0.586535339910082,0.548408509029904,0.468373831218703,0.502660032835145,0.49863418952681,0.505557998329734,0.569848728618142,0.465947416406028,0.496598541304981,0.504828388596698
600,cane,12m,FO,0.447283589742422,0.506130868721899,0.547095511060299,0.486792713736188,0.519742707904169,0.604695376401009,0.515950209853868,0.475217462750595,0.523243444578973,0.589785345980252,0.556840123566202,0.466126848882404,0.508847243027477,0.495075799229286,0.509562155948638,0.575815133087763,0.471765913193685,0.495034529654069,0.505553075534418
610,cane,12m,FO,0.453112527339724,0.502924857163478,0.547262824833829,0.488218732639337,0.512916405695972,0.597959250395683,0.511780214312753,0.471049760939024,0.528739801926122,0.592655346939053,0.565816017526217,0.463502637107253,0.514708379613405,0.492494057952279,0.512804070227599,0.581325867907389,0.479008527964683,0.493444407012548,0.505705318821974
620,cane,12m,FO,0.458459015434724,0.49974222861218,0.546923344147049,0.48950896242696,0.506413696138787,0.590999913066106,0.509112533012105,0.466993060007654,0.533858608413729,0.595055536038138,0.574185556863924,0.461038289192664,0.520116099710013,0.490615580493615,0.515635363731152,0.585934043570369,0.487576812027552,0.491973578370446,0.505708678927885
630,cane,12m,FO,0.463428215590396,0.497008196862611,0.546277207501325,0.490427414301197,0.500419827218968,0.583705603318147,0.507849634141586,0.463858098676084,0.536870308522441,0.596717304605007,0.582363281492507,0.458855205378745,0.525621897112616,0.489451903698592,0.518303992170044,0.589391120473848,0.496926280371452,0.491291648703355,0.505314805339176
640,cane,12m,FO,0.467855922147256,0.49501316111457,0.545361094095761,0.490858651167949,0.495191710419151,0.576589995399437,0.507261591600752,0.461869767425944,0.537485707114474,0.59752935223549,0.589699820048773,0.456771020784622,0.531516123444091,0.488759117393879,0.521041487786172,0.591521863463108,0.506337737877734,0.491698247133297,0.50428361817919
650,cane,12m,FO,0.471781531747646,0.49421904393062,0.543470224825931,0.491001585646461,0.491023369789411,0.570091709225304,0.507140405205756,0.460607392074815,0.537117439713949,0.597838991086704,0.595704097246225,0.454238984443826,0.537776939512602,0.488732165565574,0.524016601495001,0.592300556590292,0.515666708712637,0.492422969667494,0.50255844925546
660,cane,12m,FO,0.475412507924301,0.494967076567797,0.540638317015503,0.490395769031242,0.488194870810665,0.564442218755222,0.506801779739497,0.459798591855466,0.536851758161305,0.59772730290864,0.60042550986631,0.451245784797165,0.544481138819811,0.490151005716407,0.527508657932747,0.592153380507805,0.524796034624745,0.493200714967912,0.500536283240168
670,cane,12m,FO,0.479188534822953,0.496979672675909,0.536576583846442,0.48884589075833,0.486199895683049,0.559879948385989,0.506645081624205,0.45857978887851,0.536749188893641,0.597583130247539,0.603730375204615,0.447789198802947,0.551443184824468,0.492052238625963,0.530332391504231,0.592099790726917,0.533649480971981,0.493866926089972,0.499094265974238
680,cane,12m,FO,0.483095246791182,0.499761280204573,0.531328211138668,0.486725494181229,0.48419911553774,0.555092862755004,0.507350027197875,0.457033822258668,0.537450345899042,0.598229452722832,0.605535217015106,0.444464365798971,0.558407952099995,0.493323306401399,0.533336173602054,0.592644118305417,0.541574432615319,0.4942824496516,0.497446989217563
690,cane,12m,FO,0.486852892172249,0.503454824937029,0.524034843847221,0.484993594554149,0.482212954508708,0.550591295916063,0.508854175805339,0.455121727208422,0.539564351032825,0.599231246564846,0.606100683660886,0.440999118469193,0.564381242328135,0.493744855061737,0.535938573676819,0.594380009345233,0.548094971277245,0.494922593107993,0.495833288932764
700,cane,12m,FO,0.490346161164342,0.508081801619989,0.514923046422254,0.484315609052787,0.479824589544032,0.546656709582888,0.51054588887552,0.453410574486295,0.542528616275037,0.600568921679122,0.605376066313275,0.437671401188207,0.56921865435392,0.493070251066946,0.537447569575647,0.597542407717732,0.55181014398122,0.495966182219909,0.49416275725899
710,cane,12m,FO,0.493004764403636,0.513756116015351,0.50461483697237,0.4847996079204,0.477139747199539,0.542862034647338,0.512608589662464,0.451425781525601,0.545897038642106,0.601958868426971,0.602984076449934,0.434823768407344,0.57292229699751,0.491758325873961,0.537575150458352,0.601716386555936,0.552532284560465,0.497386627552383,0.492844402990142
720,cane,12m,FO,0.495070917997902,0.52039606266758,0.494217190984521,0.486349780857132,0.474165423663217,0.538792747774566,0.51500597108819,0.44926624446444,0.549611359335297,0.602920211527668,0.598662753190352,0.432917986465846,0.575884659502339,0.489884613520148,0.536215118153991,0.60688367423989,0.550802713380402,0.499368390932547,0.491991327327514
730,cane,12m,FO,0.496305459683966,0.527395159290418,0.484837895653779,0.488335791895565,0.472122896493021,0.534521797891052,0.517827375512078,0.44696528658586,0.553914294687988,0.603037987368657,0.592831023780866,0.430898830945671,0.57853300072289,0.487278132309676,0.533963604782539,0.614173709290502,0.547724395336426,0.501313006176036,0.491910336752405
740,cane,12m,FO,0.496991692359512,0.534247117215644,0.475848622174229,0.489617939304689,0.471129102540274,0.530597508540288,0.520768477197588,0.444493040661766,0.557941299265655,0.602601345850907,0.585997710636765,0.428173732174701,0.580953487918377,0.484628096426613,0.53138963659059,0.622331731986649,0.543932520289237,0.502670227988721,0.492322874000364
750,cane,12m,FO,0.496750153831824,0.540815517381038,0.467184143445695,0.490225050343262,0.471665890954782,0.528436561727275,0.524355073657831,0.44162323079093,0.561034944275955,0.601924203972451,0.578232152618268,0.425064853713955,0.583313084260421,0.482647298172517,0.529000136029394,0.631329441220423,0.539886430953075,0.503868095456907,0.492791565316372
760,cane,12m,FO,0.495448503559378,0.546995372714546,0.459023184751334,0.490042617484601,0.473075296430019,0.528566567102609,0.528433605962997,0.438065401781021,0.563693085437948,0.600276142906422,0.571139701984407,0.422199545954699,0.585625174093794,0.482115189279412,0.526996776880084,0.640843332455541,0.536060797190482,0.504724594055061,0.492774072217316
770,cane,12m,FO,0.493112349385999,0.552506683281366,0.451374570390761,0.4898236287787,0.474218740242985,0.530391987326731,0.53342885815774,0.434089968409589,0.565707317906601,0.597442103570804,0.5651035226683,0.419704897583058,0.588144200645412,0.483241233853911,0.525127580010053,0.649805731055632,0.533018309385879,0.505225639585937,0.49186527298762
780,cane,12m,FO,0.489779382394895,0.557116630673581,0.445104571034879,0.489879158099168,0.473604427430958,0.534525873391788,0.538169922464211,0.430041704924011,0.566785367594666,0.5929332178044,0.560970733157644,0.41806930097205,0.590495573430649,0.485018373178249,0.523233770979015,0.656832024317283,0.531317451576184,0.505345687350971,0.489648011190553
790,cane,12m,FO,0.485339689487057,0.561052683390526,0.440588668472367,0.490046652572096,0.471206160088095,0.539755768020171,0.541845515968191,0.426608516340278,0.567786507572851,0.587057975075562,0.558679535937991,0.418209332393293,0.592202210426257,0.486938010446441,0.521278100891425,0.661077786123241,0.52990219933858,0.505034106317605,0.487058450833795
800,cane,12m,FO,0.480320198655993,0.564133079872474,0.438247050678882,0.49031338417687,0.467779431243133,0.545283422715005,0.54435806259008,0.423864390983566,0.56789090578618,0.580367337029946,0.556856104502106,0.421351000068566,0.592428380137526,0.48894225383842,0.519324668707746,0.663995317813868,0.52867442695541,0.503954029178919,0.483936653864852
810,cane,12m,FO,0.475648596631447,0.565746926612639,0.438087576424788,0.49068466180313,0.463994550254414,0.552111034841392,0.545329505098646,0.421798158800149,0.56741379819278,0.573393656139004,0.555376479881252,0.426197667941808,0.591888826037948,0.491237579031012,0.517490502069479,0.664504161766973,0.527408981912093,0.50233917437755,0.480430084896059
820,cane,12m,FO,0.471286371970632,0.56584144895218,0.439302198236617,0.490891894950704,0.460620871325005,0.559559196450772,0.544524071707526,0.420281075536046,0.567132424244687,0.566768911557161,0.553645367598257,0.432110409344199,0.590581430040422,0.49411173489367,0.515999761387946,0.663573720956908,0.526587719268834,0.500157257445446,0.476830980013941
830,cane,12m,FO,0.466772956747027,0.56456044112571,0.441360384972289,0.491147208987082,0.457961733163602,0.567585539451599,0.54257654997837,0.419475755077267,0.567110367188249,0.560766071911432,0.550411121684862,0.439114028662408,0.588966790766256,0.497495823369386,0.514770266025885,0.661320198830126,0.52643679308255,0.498122329987718,0.473159221727729
840,cane,12m,FO,0.462673298775242,0.562508590763493,0.443677720504932,0.491037149091025,0.456417558278168,0.576008662094337,0.539376394255871,0.420004810743785,0.566858164754799,0.554507265693879,0.545175115580731,0.446701378723252,0.587882097889008,0.500976809820322,0.512877881164048,0.657229152946314,0.526512529200404,0.496261824484982,0.470210238943846
850,cane,12m,FO,0.459115259301807,0.56081099800132,0.447388172654254,0.48977246966362,0.455610679224386,0.584791136374171,0.536002756405266,0.421246609330961,0.565772326813173,0.547116383359778,0.538352824335293,0.454672763441886,0.587450082741853,0.50480963593543,0.510085211498599,0.652597845885484,0.527073750881103,0.494287752836196,0.467638322525283
860,cane,12m,FO,0.456156668931183,0.559904149830018,0.452322119336909,0.48738196894861,0.455251508827988,0.593523871135072,0.532753981770821,0.42301610531629,0.563600569319676,0.538844625607889,0.530849198853649,0.46296537754329,0.587989397611542,0.508912325399912,0.506895486933981,0.647236821829954,0.528149496762847,0.491560648145202,0.465412355980365
870,cane,12m,FO,0.453667137287828,0.560095533781853,0.457890152813677,0.484757973498392,0.45564479582427,0.601587875723405,0.529357847836695,0.425585237423252,0.559738716263065,0.530289585741085,0.52338741148025,0.471018051501672,0.589410334220491,0.512889626637192,0.503146906533427,0.640467119198377,0.530087752131796,0.488517021574106,0.464314259119621
880,cane,12m,FO,0.452062913517586,0.561003963109412,0.462588931450976,0.481641585548639,0.456284223856793,0.608044204864022,0.525076200857093,0.428567006285781,0.554604141185042,0.521384765255135,0.516465129181019,0.478351945044463,0.591629811100803,0.516956007591519,0.499109062217412,0.632596656906375,0.532329667897676,0.485385036238382,0.464521050729134
890,cane,12m,FO,0.451360804312121,0.56334033656873,0.467077918711723,0.479078766951839,0.457410485260248,0.612507486680006,0.519184090472284,0.431784206375307,0.54905368157591,0.511470170148907,0.510949314279327,0.484674661242711,0.594416121580154,0.520779510954847,0.495166097139011,0.623715018569074,0.53487965406699,0.482211693607711,0.465839168224178
900,cane,12m,FO,0.450825730735831,0.566721881823168,0.4712903202832,0.477073977481893,0.458836181071045,0.614407275198913,0.511924993437029,0.434641965875571,0.544090364989063,0.499695832084972,0.50762985726936,0.489976147035771,0.597508634822624,0.524358683604375,0.49165191777901,0.614498980872592,0.536976865822061,0.479799644755289,0.467812756597032
910,cane,12m,FO,0.450184967468982,0.570815760958165,0.475349234823986,0.474889938229361,0.460311199866967,0.613583241992439,0.502725784369562,0.437128247797626,0.541129499902579,0.487000229741279,0.506526054940749,0.49406565962435,0.601013311058335,0.527255060218941,0.48792772216804,0.604954521645084,0.539026029828732,0.478871287558493,0.469676193032749
920,cane,12m,FO,0.449318917027177,0.575076060540373,0.478655953802735,0.472649004968792,0.461563333409303,0.609657282083622,0.491880745491938,0.438552292902547,0.540333405586604,0.474051290437587,0.507299913661881,0.497191881298802,0.605170971000112,0.529540457795029,0.483888563470035,0.594508270466641,0.541333155804037,0.479286943305521,0.471237705688922
930,cane,12m,FO,0.447742104531,0.578983792786285,0.481378652918748,0.469903694306282,0.462504686596291,0.603202262028593,0.479559090551207,0.438883339160599,0.540988714734529,0.461876166868657,0.509625750337761,0.499480370262552,0.609863333705012,0.531326128503545,0.479816460218397,0.58361046443471,0.544025961271458,0.480771978982693,0.47195369912523
940,cane,12m,FO,0.445695994031735,0.582512821537406,0.485730240237036,0.466558241602875,0.463139291411662,0.595276150957348,0.466240114312715,0.437812813493108,0.542752162896569,0.450331225937987,0.513741774263599,0.501107954148979,0.614511275925196,0.532437730287337,0.475687409109877,0.572989065605962,0.547290490835907,0.483113227486399,0.471262972778123
950,cane,12m,FO,0.44395709860918,0.585412160726703,0.492273699200104,0.462653796238696,0.463157993970111,0.585564107112343,0.452965639419435,0.435192865712313,0.545161134848879,0.43978162686678,0.518910265205265,0.501903164514037,0.619081686612939,0.532909597765622,0.472294605182661,0.563706055838677,0.551069885942096,0.485807406247,0.470291078498064
960,cane,12m,FO,0.44322602538239,0.587410153570879,0.500226142045851,0.45847923656326,0.463053441129211,0.574983856920285,0.440619781077982,0.431315309179866,0.547681986682136,0.430561091298643,0.524968802117376,0.502165599759244,0.623783680469671,0.533618332907822,0.47020926726446,0.555356715048777,0.554703010908386,0.488857387489827,0.470812846109218
970,cane,12m,FO,0.443551896104303,0.588059924247632,0.508571462784158,0.454544994767697,0.462976226967469,0.563751796705659,0.42939436366933,0.426339249167744,0.550084934462527,0.422393227270989,0.530828856968154,0.502157243713694,0.628016303163409,0.534907836694039,0.468738792735835,0.547686079600644,0.557553487526211,0.491741393914329,0.472531499502908
980,cane,12m,FO,0.444716444282638,0.587321296566843,0.517105642434699,0.451983284094207,0.46296150607922,0.552152464704964,0.419057021348367,0.420414861355083,0.552763212692016,0.415720096253744,0.537033248675911,0.502031227851732,0.631324972674968,0.53654448689547,0.467973060908125,0.541368636882554,0.560097929101121,0.494456475570061,0.474731251770397
990,cane,12m,FO,0.446457338786828,0.585824228692826,0.525457110933597,0.451239906096067,0.463453510179593,0.540748769375443,0.409760945620319,0.41366732890935,0.55508289481777,0.41011102040732,0.544139980879422,0.501961347713495,0.633214081771074,0.538578876573515,0.467819765037763,0.536316677766531,0.563461385478843,0.496484389931779,0.476715087661928
-1000,grasp,12m,FO,0.44539092696271,0.49841282882948,0.468202084726357,0.457193337027921,0.548047514917648,0.481584590348996,0.510899657037846,0.430304399290568,0.494783154585096,0.551612043775232,0.510964520095178,0.455464067281318,0.484945556192465,0.433845300102204,0.489194508076627,0.527638467663971,0.52848240919972,0.479780290947896,0.50947055961624
-990,grasp,12m,FO,0.447766806458,0.500875828881447,0.467265452602918,0.457694374318955,0.549937011678605,0.481205745940232,0.513483944118756,0.42901461928108,0.495039562892611,0.551788370930603,0.515223799311479,0.457310713075522,0.489240975255195,0.434785229826695,0.491520159273619,0.532198435938145,0.530870472327187,0.478685938342536,0.505322502264655
-980,grasp,12m,FO,0.450868664633019,0.502090407950852,0.468050861336127,0.458054050982841,0.551917093719677,0.482463973252963,0.516242158886397,0.42743571849252,0.494703218500333,0.552237863500543,0.519992001319913,0.459844985982281,0.493622531633325,0.436340529389017,0.494752548715546,0.534924973915845,0.5333123539034,0.478083709246061,0.5017487538179
-970,grasp,12m,FO,0.454270161617421,0.502543080628123,0.470610141595357,0.458711589935103,0.553879396341294,0.484474755738157,0.519234852506224,0.425584094368033,0.494187161050122,0.552937424895144,0.52504204701693,0.462863564902468,0.497405258393713,0.438657682080344,0.498673898266247,0.536275481701082,0.535927768639655,0.478088819999489,0.499151951007444
-960,grasp,12m,FO,0.457756804494461,0.502383983370202,0.474059931279502,0.459896289250471,0.555502994018543,0.486732888289531,0.522344566740072,0.423680739279263,0.493165791327292,0.553594696275759,0.530267751169619,0.465895975956753,0.500124423098133,0.441114707025884,0.502772608475325,0.537053824194781,0.53859439491808,0.47893624646709,0.49821344213296
-950,grasp,12m,FO,0.461256658206215,0.502770442378522,0.478457783228915,0.461425372380452,0.556342740914669,0.488307732587673,0.525000135530626,0.421767829861248,0.491192863329785,0.553893561484999,0.536134647893447,0.468242552401554,0.501746395328172,0.443556329051167,0.506448040852046,0.537367214383098,0.540693014939451,0.480143893839412,0.498515275168162
-940,grasp,12m,FO,0.464718625496078,0.504060906745382,0.484236642093546,0.462320813395396,0.556015953879183,0.488706880340387,0.526859449558168,0.421398186222213,0.488809520158972,0.554468324780704,0.543016192649351,0.470477204267637,0.502274606152084,0.445649383411596,0.510369402184824,0.536391567755508,0.541610467040812,0.481492224604397,0.500099839227046
-930,grasp,12m,FO,0.467615090195432,0.50612270419905,0.491221012250236,0.463043389397268,0.554669566427738,0.487959739082916,0.527126775469164,0.423321607125542,0.486275120692569,0.555474481323981,0.551669169603687,0.472630545243403,0.501559804362106,0.447481621486542,0.514531056629202,0.534398777788529,0.541389258546222,0.482455366701902,0.502793072458414
-920,grasp,12m,FO,0.470287449261617,0.508794716172028,0.499107609586744,0.464406882873663,0.552980911868251,0.486084800085805,0.525679625726995,0.426905748493157,0.483403453854662,0.557074895218855,0.562082573932426,0.474692464461863,0.500379069004788,0.449422823897939,0.518700703460912,0.532253328782913,0.540063012594977,0.482890310261877,0.505964653507859
-910,grasp,12m,FO,0.473601586305363,0.511469070369872,0.506838668093088,0.466858451493909,0.551106201695108,0.484151844412066,0.521957132586255,0.431749214409371,0.480320248150477,0.558988853852698,0.573587231155624,0.476595574480235,0.499752060481782,0.451874974409282,0.522312741238385,0.530471560524557,0.538224743736938,0.48317597627536,0.5094387443896
-900,grasp,12m,FO,0.47811024301678,0.51407627928614,0.513840196012493,0.469204176217564,0.549615610624027,0.482049789396763,0.516401908555391,0.438346449792101,0.476684321265548,0.561515157486018,0.584770249205329,0.478700389847192,0.499342676879691,0.454677157318546,0.524428760116376,0.528088132913409,0.535639271001609,0.483479723912961,0.51281125550507
-890,grasp,12m,FO,0.483576502045789,0.516545761042482,0.520723546235722,0.471594958552368,0.548675467818705,0.479763342056315,0.509679509552801,0.446388931226832,0.472431930795851,0.564681067894058,0.593750430046354,0.481689096275076,0.499179976773959,0.458160753933499,0.525283505522153,0.526095371411237,0.5317180198265,0.482994877255121,0.51631859056638
-880,grasp,12m,FO,0.489715891855068,0.51867670330295,0.52778090165573,0.474815574848093,0.547696479207556,0.478365286060286,0.502820962665907,0.455209052474933,0.467667499924564,0.567863207169765,0.599974908655452,0.485948412554633,0.499821270095249,0.462897584335705,0.524908473490631,0.52427689076303,0.526852177699959,0.482241504274817,0.519818295493892
-870,grasp,12m,FO,0.495721956419738,0.520352939956442,0.534430746050915,0.478300566988535,0.546402282960357,0.478025581161701,0.496530633629087,0.463896759976172,0.462625229099718,0.570642394480732,0.603878358870802,0.490755115592608,0.500618870398582,0.468987176894145,0.523217895132107,0.521665185515776,0.521084204495033,0.481223796852741,0.522845204854053
-860,grasp,12m,FO,0.501161774208194,0.521344644893796,0.539395197080999,0.481417857612961,0.544888566841279,0.478710083987777,0.491119739379673,0.471838411501758,0.457461376736155,0.572890424052519,0.605463953392665,0.495855763051873,0.501620604244359,0.475568521125412,0.520315438295597,0.519059612383331,0.514731448780582,0.479764384442924,0.526018133679465
-850,grasp,12m,FO,0.505635167413432,0.522473284688095,0.542060174763653,0.483966673029517,0.543485310392803,0.480965236265244,0.486742853665668,0.478983289498035,0.452639523914522,0.574498652166983,0.605294105356407,0.501264578446918,0.502957744548444,0.481857820567918,0.516663121857745,0.517132959149561,0.509032010961101,0.477504666961915,0.529632506361567
-840,grasp,12m,FO,0.508977024920167,0.523707037888801,0.542737072949375,0.485991521026291,0.542228873538399,0.484627678122364,0.483596937527634,0.485825840282223,0.448587490248114,0.575331395073804,0.60328471335299,0.506979446643083,0.504719676541294,0.488032543598567,0.512731516121936,0.515859832034155,0.50397815216913,0.475152600638762,0.533730719074723
-830,grasp,12m,FO,0.51117602972445,0.524819089707731,0.542666886948067,0.487305465030072,0.540923622992494,0.48809662607183,0.481035616173554,0.492692183577948,0.445810420030713,0.575515010721265,0.599820364010363,0.512436950712105,0.50718991711746,0.494078312923738,0.508749227415203,0.515714213596757,0.499623541702263,0.472407556229366,0.5376530202663
-820,grasp,12m,FO,0.512434713527664,0.525485810596959,0.542181326060924,0.487341218118494,0.53966622919501,0.491660386795674,0.478810674340572,0.499081017660574,0.445346255579795,0.574733480857474,0.595260039118476,0.517672426091344,0.510163111843819,0.500031969230668,0.504943573620851,0.516986143680007,0.496057459249061,0.469485594500341,0.541074033713917
-810,grasp,12m,FO,0.512833048171872,0.525720731310346,0.541720760633712,0.486497829781616,0.538393838940279,0.495323220875694,0.478279473585949,0.504950151015456,0.447363760223628,0.572753454963613,0.589720659725368,0.52240730253973,0.513841817898624,0.505953559346383,0.501331437268268,0.519721149434233,0.492975136373815,0.466397015406413,0.544442135621772
-800,grasp,12m,FO,0.512337968510687,0.525166353908632,0.541647065103285,0.48510808519674,0.53747304243065,0.499400542338457,0.479966125754209,0.510095540254959,0.451204680435171,0.568860961742406,0.582535320698812,0.526310905367365,0.517185940845927,0.511565248326412,0.497073349640881,0.523028001639212,0.490785131082667,0.46334508761031,0.547766219680371
-790,grasp,12m,FO,0.510725986486534,0.523228056604901,0.541593150482533,0.482732756575391,0.536522436845587,0.50383949837177,0.484075886193092,0.514774209019445,0.455615282909293,0.563567119669711,0.573881603118032,0.529310110564816,0.519144330059468,0.51703240932909,0.492402305837726,0.527116719162932,0.489811884846747,0.461050643242976,0.551630372867832
-780,grasp,12m,FO,0.508223785672919,0.520187552427896,0.540984147192658,0.480920671764877,0.535440926425176,0.508688269023286,0.489279114584571,0.519072576099916,0.460765194078709,0.557486801927855,0.565543797383077,0.531448417777236,0.519118488255448,0.522462801167257,0.487388796263293,0.532046483885537,0.48945316634915,0.460016778264563,0.55593470951644
-770,grasp,12m,FO,0.505061626709432,0.516266262195429,0.540327404174172,0.479804309211815,0.534099633864583,0.514111585116032,0.495291486919807,0.521719760874552,0.466090642279563,0.55066719206977,0.557099363666019,0.532838403055749,0.517754265339755,0.527579167033522,0.481492717132801,0.536635310872135,0.488911913512806,0.460244765267773,0.559869971440395
-760,grasp,12m,FO,0.501145945416644,0.511854740372397,0.53990945401097,0.479091499847939,0.531912877629056,0.520695895623834,0.501251942246678,0.523514373255503,0.471278783418632,0.543190546062321,0.547909390222728,0.533722252233213,0.514905147028556,0.532349532379248,0.474983548449121,0.54010784664602,0.487876757513031,0.461622982363851,0.562525857050727
-750,grasp,12m,FO,0.496501387165571,0.508042450657681,0.539796723954347,0.479093565244712,0.529326315218264,0.527399323714392,0.506652899660801,0.524469306566379,0.476187905347044,0.535484100160703,0.538365926543328,0.534484051062453,0.511141004949365,0.536846319002358,0.467815730488469,0.541164445422908,0.48680938213475,0.463641188709783,0.563910378839204
-740,grasp,12m,FO,0.491813741610044,0.505420546416163,0.540042762721773,0.480789594498823,0.526466341940163,0.533397269368848,0.51142351997725,0.523960338206831,0.481324634777624,0.527992589746777,0.529587081592711,0.534595277506189,0.506135362988459,0.541538843991065,0.46043897307573,0.540999882412444,0.486353075786666,0.465960462373991,0.564353238800022
-730,grasp,12m,FO,0.487482439521032,0.504649086648905,0.540656424294732,0.484391722166154,0.523025187048163,0.539756287187867,0.516559482849832,0.523330980631479,0.487191780244215,0.521610109325792,0.521415901299256,0.534554496637469,0.500138397971919,0.546361548841276,0.45314397239685,0.539997001630129,0.486265523755665,0.469378545886902,0.563825190086653
-720,grasp,12m,FO,0.483251046328177,0.504736365716793,0.541452396854806,0.489863657448723,0.51986439740703,0.546363255100717,0.522952943401316,0.52319857515084,0.493404586562063,0.516257574762632,0.513943624378278,0.534445585570807,0.493597884989865,0.551233908564215,0.446149326034726,0.53755070445216,0.486588140883513,0.473650454263235,0.562035661819572
-710,grasp,12m,FO,0.479439671262461,0.5054778792339,0.541839468236784,0.496324262257173,0.516929197844564,0.553145263667272,0.52959044129954,0.523650905611806,0.499828283938656,0.511448690178323,0.507474354511214,0.534723052125839,0.487391962185747,0.556475880391247,0.439747389422376,0.533536351333163,0.487018186513698,0.477821167396663,0.559017238945422
-700,grasp,12m,FO,0.476458953357829,0.506684252428598,0.542224773946975,0.502549912768853,0.513995615205715,0.560660843557206,0.536298555671372,0.524815807340274,0.506840593948533,0.507191527342012,0.502386396559728,0.535449360784532,0.481659156241173,0.561888242412777,0.434089170902911,0.52839127637463,0.487509322971929,0.481649043095793,0.555762675016363
-690,grasp,12m,FO,0.474718022507798,0.508724814873467,0.542744693949507,0.507867360142037,0.511070772339156,0.567987322425745,0.54271534396523,0.527587430327183,0.513640838144336,0.503149785966353,0.499116102711424,0.53651164339272,0.476303393994793,0.567150638351022,0.429499933152008,0.522274273925024,0.489166935144829,0.485120411615733,0.552520592027534
-680,grasp,12m,FO,0.474423739233148,0.511784848815727,0.544531586176731,0.511569590234966,0.507981568006535,0.574537207119941,0.547741223580305,0.531546861274038,0.51999221472593,0.499689182530455,0.498190792568516,0.537754284144283,0.471463992104498,0.572692263376312,0.426325289203558,0.51527957534146,0.492491850229801,0.487245110430806,0.549953154925029
-670,grasp,12m,FO,0.475253602219348,0.516167268906422,0.547289422541538,0.513703889559742,0.505194503854276,0.579976348819132,0.550974515599937,0.535037334561402,0.525883684082884,0.496908156884868,0.498258279348006,0.539015584595086,0.467933411705336,0.578211591716051,0.424654708642107,0.508113242268806,0.495898237310179,0.488691349619588,0.547842590715524
-660,grasp,12m,FO,0.477295037768514,0.521815038213455,0.550036560730704,0.51378288964789,0.503094959015937,0.584253106949166,0.552200199683604,0.537721005254676,0.530851557402769,0.493943429841662,0.49918439275906,0.540113101699485,0.465404453879498,0.583381039941626,0.424845534727052,0.502640832216614,0.49857360790035,0.490946209406902,0.54661277994445
-650,grasp,12m,FO,0.480229244044988,0.52789473750673,0.552491772673094,0.511566068945043,0.501562936133182,0.586975716252293,0.55172183988886,0.538582503573169,0.535031388007672,0.490813509054278,0.500719771854725,0.54080988550012,0.463140239914788,0.587712144231467,0.425786467419923,0.498371255744854,0.500448052032321,0.49361391020175,0.546373196066646
-640,grasp,12m,FO,0.484061852807027,0.533560921802063,0.554589984195992,0.505427147817726,0.499458074746462,0.587337272646537,0.550814269693036,0.537692746093814,0.538307435955181,0.487435383643424,0.50044422125029,0.541189783265913,0.461546234756956,0.590362688418508,0.427165990213136,0.495284264503503,0.502081789562416,0.496332249658272,0.54691864368818
-630,grasp,12m,FO,0.488624954911847,0.53820207542306,0.556758235038312,0.495838699807458,0.497468400091898,0.585736565148318,0.551740714650657,0.534967100946333,0.540298490362762,0.484071659213015,0.498897385359066,0.541286198470072,0.460471384235914,0.591399804552865,0.428942453146022,0.493293775665007,0.503311520447555,0.498734882903808,0.547967601959235
-620,grasp,12m,FO,0.493454507189056,0.541091771259392,0.559840457200317,0.483741485219843,0.495794282112362,0.583153400106953,0.554123911780118,0.531568720080051,0.540990669651778,0.481051466191344,0.496453525016461,0.541320336625557,0.459613923985123,0.591001568241184,0.430738179999231,0.491769449225222,0.505122507081173,0.501212354373095,0.548787969927852
-610,grasp,12m,FO,0.498644079885576,0.542160764981716,0.564121028631685,0.47107764746059,0.494668810051805,0.580238083728845,0.557962831915023,0.528165374568695,0.540866324829995,0.47881140252372,0.49276445642556,0.541270711507106,0.458637938867534,0.589012253988321,0.432734322649304,0.490942492076343,0.507454164557978,0.50372040724,0.549856947388474
-600,grasp,12m,FO,0.503747011628031,0.541583170221234,0.569061946904259,0.458780343240952,0.494374268383598,0.577016237749694,0.563717600328096,0.525374919855194,0.540494673371127,0.477221752502776,0.488124524720554,0.540748844572811,0.457529922707706,0.585829717654721,0.434988650378711,0.490936638275922,0.510431451662281,0.505576753746515,0.551119777164764
-590,grasp,12m,FO,0.50873948601439,0.539781325569556,0.573913374108991,0.448852073816104,0.494417179381816,0.573041938289045,0.570591865859552,0.523406623268145,0.540123528430794,0.476921614342516,0.482526169769012,0.53973476918067,0.456945670166779,0.581688662784137,0.437387611330459,0.491848574414591,0.514244349959406,0.506980019238242,0.552333532932446
-580,grasp,12m,FO,0.513563669590635,0.53734857315757,0.579186343920643,0.441260559926318,0.494963150409818,0.568575242442685,0.578160843354919,0.521028397755675,0.539805798583477,0.477582500166108,0.476556747250399,0.538723116484927,0.457361828687749,0.576459921400374,0.440150878214671,0.49386949017585,0.517556938261467,0.508105272346694,0.554002075678773
-570,grasp,12m,FO,0.518210449209731,0.534380873949042,0.583776549073497,0.436037000877039,0.495821554948863,0.564196314091064,0.585245514662208,0.518768026291198,0.538940215644784,0.479160141501845,0.47028488110751,0.538067683007594,0.458985187897482,0.570668030844619,0.443569444843996,0.497241212978143,0.520403885525921,0.508809964651254,0.555681146648149
-560,grasp,12m,FO,0.521675025729062,0.531093605497671,0.587176305963891,0.433262989863556,0.496649435205929,0.559802674869652,0.592247516111034,0.517846831111121,0.538422843511015,0.48143732879803,0.463612602342162,0.537599773516513,0.46077334187307,0.564484133165584,0.4480172747534,0.501974513391196,0.523502319618688,0.508571262029955,0.557606017343722
-550,grasp,12m,FO,0.524261468167171,0.527751327879384,0.589831081259327,0.432419818602741,0.497014043785373,0.55489706026524,0.598899352786183,0.518485740392924,0.538812978807704,0.48438176542299,0.456332790908248,0.537540194769938,0.463039572447908,0.557910041969034,0.45303301976333,0.508119088634623,0.527185293054572,0.506992475333615,0.55955089839652
-540,grasp,12m,FO,0.525661656267243,0.523651477272703,0.591446471422035,0.433201180325669,0.497049115191686,0.549520581329596,0.604437086678663,0.519785975935537,0.539584337671829,0.487817734273732,0.4494019570363,0.538257594951926,0.466162502577563,0.551149588620433,0.458561043498012,0.516131072908369,0.531681593485403,0.503988886781859,0.561096022037608
-530,grasp,12m,FO,0.525611731195006,0.519401277239586,0.591824914928687,0.435080682896503,0.497240466702079,0.544285694079221,0.609103453634983,0.520878070500133,0.541235046916675,0.491080234986569,0.443137317457426,0.539064663827984,0.469831012327623,0.544524405519005,0.464388282430545,0.525835070339022,0.53750858300032,0.499597685519556,0.562013315974222
-520,grasp,12m,FO,0.524545271239574,0.515524900424636,0.590576407239049,0.436815899813334,0.498010530956838,0.539587322024729,0.612675494110064,0.521420100190553,0.543296397659723,0.494373236376468,0.43771670101576,0.539454649720992,0.474304107994008,0.538386388473751,0.470523492817259,0.536959670510296,0.544653137224254,0.494011675039195,0.562627560086097
-510,grasp,12m,FO,0.522629661901159,0.512452877382981,0.587898185253905,0.436660822652097,0.499598665995,0.535062927598183,0.613845116232971,0.521144565445384,0.545351336093843,0.497854050105724,0.433562893574756,0.53910992328011,0.479558008289257,0.532740465912813,0.476816781372292,0.548588776474404,0.552165528227129,0.487733100179773,0.563174947801326
-500,grasp,12m,FO,0.520501729987749,0.509843370482334,0.584150210088217,0.434958907157899,0.501448658219746,0.530262656710239,0.612477687307677,0.520730307975448,0.547673149226362,0.501674732249672,0.430253732902252,0.538675643964994,0.484905318431063,0.52750802460333,0.483327490671441,0.559960139126609,0.559478955852445,0.480887004919488,0.563868706684962
-490,grasp,12m,FO,0.518722931282603,0.507901809538896,0.57942520571422,0.432075138485358,0.503279016600608,0.525217287050911,0.609030588362227,0.520491865314247,0.549730665284544,0.505950312537608,0.42739600663967,0.538337658088707,0.490192190279964,0.52233992568235,0.489568082507264,0.569739180822401,0.565941353303373,0.473603586713556,0.564549383854899
-480,grasp,12m,FO,0.516913055685402,0.50653514787295,0.573259155517396,0.428789523375984,0.50487051669977,0.519916581872874,0.603791587593226,0.519913165053947,0.550777926152167,0.510922948239382,0.425435967486133,0.53824255236083,0.495959555133935,0.517010466490844,0.495652468617776,0.578557200062628,0.571043575901818,0.466759241248132,0.56471148987302
-470,grasp,12m,FO,0.515021448873402,0.50584781166426,0.565589153355824,0.425102125292733,0.506431125963405,0.514198726906045,0.596950061026634,0.519218986447929,0.549962522125991,0.516142140671729,0.42470320876893,0.538330345777156,0.501709108292017,0.511711523940512,0.501920146335641,0.586820833825915,0.574166066098973,0.460465804534242,0.563824955880533
-460,grasp,12m,FO,0.512407331252996,0.505489281883114,0.557393890571451,0.421975159371607,0.507241724510182,0.50824894054584,0.588729611702732,0.518467538320522,0.547148170137548,0.521709451281115,0.423652230355185,0.538645952442837,0.507387930459683,0.506841922993356,0.50765813673712,0.59436084613167,0.574799519990113,0.454609896852697,0.561947476081971
-450,grasp,12m,FO,0.508935969220081,0.505495069739007,0.550199065888476,0.418903184447007,0.507778921456972,0.502349882085983,0.579821951085284,0.517213813016847,0.54332570048071,0.527465415660451,0.42205052159185,0.539541566096364,0.512895486898249,0.502950717224328,0.512743203384021,0.600993113969558,0.573988452673696,0.449373475558849,0.558920048151765
-440,grasp,12m,FO,0.504317195884702,0.506217763589334,0.543885475172698,0.416016501005502,0.508068947482773,0.497191308057873,0.571301683733982,0.515389074831199,0.538898751952013,0.533001047778163,0.418789443271402,0.540566012713855,0.51883561659156,0.499432043265699,0.517564919478957,0.606059165679093,0.572331800739445,0.444402060943241,0.55453709458104
-430,grasp,12m,FO,0.499342792278923,0.507271698657957,0.537218853770667,0.41285261380928,0.508340432515772,0.492606250474709,0.564187298958441,0.512549804643374,0.533778797853489,0.538209991180791,0.414860269757863,0.541719246467695,0.525332624474466,0.495783817594633,0.522182845224754,0.609448332176732,0.569884072656222,0.440295133955428,0.548899146365933
-420,grasp,12m,FO,0.494849881072079,0.508832709095598,0.530845963350145,0.409658191882049,0.508703425319888,0.489221541005076,0.558860408422904,0.508239694814513,0.527814067326662,0.542897568878123,0.411414694817197,0.543096703958886,0.532466353872699,0.491914356188036,0.526564111331811,0.611668552665219,0.567212318621557,0.43723574145742,0.542547862388333
-410,grasp,12m,FO,0.491113220048669,0.511327545759053,0.524361147237684,0.40581140141061,0.509293681053005,0.486342183954954,0.5551893747159,0.502275153156152,0.521348160015414,0.547324005939823,0.408719327535752,0.544928086264929,0.54074601448763,0.487973921238345,0.529799036184757,0.612672587538267,0.564341929820046,0.434921399189447,0.535842809085587
-400,grasp,12m,FO,0.488279653530921,0.514497304444066,0.517264632914471,0.401729611741983,0.509905851809542,0.483872027270614,0.552653386839049,0.49516741128061,0.514870632090993,0.551973221155544,0.406842769791743,0.547202406962926,0.550230916017719,0.483984513616924,0.532203176747697,0.612430767792152,0.561598428915835,0.433655684453779,0.529352975374863
-390,grasp,12m,FO,0.486211820324171,0.518075581252865,0.508511206505674,0.398535934206224,0.510397217592391,0.481913570021699,0.550399369802453,0.487706906254242,0.507947423002014,0.557202125344355,0.40573346072549,0.550034767161757,0.560070185606135,0.480042782843079,0.534040623809844,0.611710047961716,0.559455155255671,0.433589456166003,0.523311281296802
-380,grasp,12m,FO,0.485101665186516,0.521561732354992,0.498639243486378,0.396407290324623,0.511035849539156,0.480255494967147,0.548606052694075,0.480170036086763,0.501127857613974,0.56273691478498,0.406711671930496,0.552973007669916,0.569770400330019,0.476012277805432,0.535369634888941,0.610658920788971,0.557449572348601,0.434237167915291,0.517778109681201
-370,grasp,12m,FO,0.484897957315265,0.52539620627383,0.48798833670396,0.395734129122733,0.511775819524154,0.478715770136026,0.547250743831582,0.473040434568977,0.495233740977891,0.568151112948799,0.408363659960164,0.55507952448846,0.579344110067809,0.472184286573912,0.536692196117172,0.609420314466899,0.554320771735566,0.435213285284501,0.51388231475005
-360,grasp,12m,FO,0.485677022521374,0.529159077804014,0.478109187838425,0.396956186305622,0.512325073054137,0.477314109593443,0.547130555038021,0.466274554086932,0.490231758996472,0.572798491343862,0.410432088625185,0.555929898550144,0.5880052684708,0.468619472394102,0.537734580578988,0.608142403718325,0.550972267780987,0.436296202781453,0.510589135992911
-350,grasp,12m,FO,0.487061432026202,0.533406695361381,0.468910624456466,0.399197471312373,0.512931941180525,0.475231029278878,0.547615012760154,0.45962349926556,0.486702594960377,0.576351935240792,0.412995747412341,0.555505865805405,0.595698452049798,0.465164717341198,0.537625594383,0.606815077874682,0.547413332341309,0.437250906808877,0.506879091370777
-340,grasp,12m,FO,0.488675169298592,0.537166084235126,0.460248455865181,0.402603698276753,0.514018760635222,0.471686766742985,0.547874836130889,0.452133727624728,0.48422710828792,0.579044625695613,0.416470716223928,0.554055211189448,0.602201158492165,0.46186916286256,0.537287345095079,0.604871830230562,0.544034642346339,0.437757698013923,0.502602508496212
-330,grasp,12m,FO,0.490806211335662,0.539854615410848,0.452736783152253,0.40660301548922,0.515783386748433,0.466714248358784,0.547624899067562,0.44421177469506,0.481515423096425,0.580898866767811,0.420902585682195,0.551887864690546,0.607704219817632,0.458665859070963,0.537100080919117,0.601614467755649,0.540650244804965,0.437980048382732,0.49806699966182
-320,grasp,12m,FO,0.492891491794616,0.542159973963481,0.446748694622695,0.411935228451071,0.518517065031783,0.460030035904712,0.54674222047004,0.43714591715452,0.478674267664155,0.581774072395508,0.425806794341144,0.549321603930196,0.611518949069667,0.455719949376766,0.536305248220071,0.598074132041938,0.538009065865889,0.437968448992886,0.493155522343976
-310,grasp,12m,FO,0.494271413139401,0.54446471849873,0.441974292595684,0.417612726217798,0.522249697561495,0.452155129077752,0.544868553139675,0.432017094917985,0.475718868643258,0.581039426570973,0.431726758654733,0.546770269802422,0.613961199593012,0.452981081168075,0.535215465183006,0.594896186214353,0.53661996190648,0.437904858292322,0.487613805533682
-300,grasp,12m,FO,0.494673347601633,0.546856002657168,0.438025340322925,0.423070431843694,0.526484964343713,0.444055725783709,0.541339367995121,0.427956460773034,0.471864109090358,0.579100490808203,0.438333774139359,0.544261742482982,0.615471561373594,0.450779736499242,0.533549459853836,0.592357877913157,0.536023976831719,0.437740626660458,0.481364636811757
-290,grasp,12m,FO,0.494349737080295,0.549175800828768,0.43467965838193,0.428067339765915,0.530246711024156,0.436505283587155,0.53646009862087,0.424431226140111,0.466669409418196,0.576589039789757,0.444682608072381,0.541987269706453,0.617092634340009,0.449195827495709,0.531637604959189,0.590726006051738,0.536363150992132,0.43736618315829,0.47482718634217
-280,grasp,12m,FO,0.493225401792565,0.551675453844785,0.432527806920747,0.43214063315095,0.533290653852132,0.430116323603242,0.530291905368938,0.421453266038163,0.460387386233425,0.573545967965884,0.451191343367234,0.539728262418683,0.618571531962241,0.448392481568593,0.529124247276031,0.590233135779209,0.537447017404302,0.436593867730004,0.468501223825655
-270,grasp,12m,FO,0.491050379640785,0.554181800989131,0.432087460590168,0.435296309721312,0.536147054452559,0.425384067254781,0.522441570023446,0.419330662053485,0.453903708762047,0.569828322431375,0.457653799021599,0.537772810656721,0.619618131000579,0.448679455455698,0.526068136856908,0.589574863955022,0.539473637683903,0.436413076984581,0.463188736376583
-260,grasp,12m,FO,0.488291290146587,0.557058884280837,0.434324885060411,0.437480074311751,0.539323986485139,0.421792976003276,0.513973439563493,0.418013974302691,0.447376095843711,0.565667189573011,0.463942410650583,0.535888645061338,0.620651603400334,0.450127234307618,0.522737107601082,0.588535687588624,0.542867528084039,0.437139919011331,0.460756576417845
-250,grasp,12m,FO,0.485598248178566,0.560256619027837,0.437688733042615,0.440033871734698,0.542462188582791,0.419516772320222,0.50510319226096,0.417125684254791,0.440793443836824,0.560942434304289,0.470412814501891,0.533589072645479,0.621467181509116,0.452469373270022,0.519285829114894,0.586713242682681,0.547381911095808,0.438365910347744,0.461243202649678
-240,grasp,12m,FO,0.483421460648165,0.563866006000512,0.442810531536186,0.443366931918633,0.545493871507771,0.418327574272204,0.496732001066389,0.416843552626176,0.435862053212206,0.555926795462308,0.476895743960666,0.531209698174559,0.621954112229965,0.455442970256169,0.515095210034613,0.583139163950381,0.552413442330672,0.439534775967156,0.463443535549734
-230,grasp,12m,FO,0.481408531586154,0.567542044223498,0.449699862319997,0.447116980029747,0.548007099237308,0.417785623948453,0.489988793018724,0.417030635736219,0.432309781021942,0.550311900584255,0.482939237893226,0.529158366407251,0.622518531277507,0.458819820861009,0.510202619111269,0.577784716021317,0.55685523833219,0.440757080064328,0.465834715688475
-220,grasp,12m,FO,0.479987975541869,0.571040125236519,0.45792308957833,0.451574745654302,0.550074311046771,0.416708070384747,0.485725930151875,0.417851396496282,0.43045872453424,0.544389435688492,0.48801319881865,0.527602647769446,0.623155939793731,0.462058570675732,0.504672121384843,0.570753450435404,0.560472227546627,0.442017948989074,0.468145708924719
-210,grasp,12m,FO,0.478997011010374,0.574415775208214,0.467066755515293,0.457246768354094,0.551506300876502,0.415623497301866,0.483351316355093,0.419793757705941,0.430631991938514,0.538600375315933,0.492317720680278,0.526294181199543,0.622491109691257,0.464589281509599,0.499108638326984,0.563130003692684,0.564402150327869,0.44365708323116,0.469755321060169
-200,grasp,12m,FO,0.477935070064124,0.577441263730908,0.476947178195293,0.465274636805647,0.552587951157844,0.41494581357287,0.482162996592897,0.422631053742767,0.43311321488399,0.532724532106696,0.494269202985079,0.525384930665917,0.620344086941446,0.466142993493962,0.494357918731371,0.556160414420809,0.568714068904271,0.445351906592448,0.470404152746925
-190,grasp,12m,FO,0.476626302453272,0.580220122116101,0.487104325397761,0.473863642119247,0.553402674287606,0.415010078530988,0.480664093014928,0.425859619615886,0.436321710781937,0.527022326025469,0.493866296109149,0.525042118303162,0.617158831350526,0.466925985455063,0.490507531600144,0.550171260173443,0.572727865808272,0.447986831554747,0.470226400118126
-180,grasp,12m,FO,0.474957526813392,0.582953665995034,0.496350565391229,0.482620635951811,0.553875286929323,0.416441226179674,0.477737027214567,0.429208719353005,0.439634617688388,0.521981368521917,0.491699455897747,0.524873938651095,0.613038232509487,0.467298528594477,0.487714434055449,0.544915433463845,0.576305083719787,0.45167911312755,0.470104637560304
-170,grasp,12m,FO,0.472843579499806,0.585835697913657,0.504639078714794,0.491041909067053,0.553930684148854,0.418256952726155,0.47328733866305,0.43192964920011,0.443640917531451,0.517664475673788,0.488075783209157,0.524836028286561,0.608063226093825,0.467623957821435,0.485371588078048,0.539846273989505,0.579723674603004,0.456386699879784,0.470611081606883
-160,grasp,12m,FO,0.470635454477757,0.589124370422466,0.512079380192079,0.497600393701921,0.553796673060081,0.41982910327476,0.467810184917224,0.434392979469763,0.44683484322117,0.5131594166314,0.483428983605352,0.5248084045122,0.602604214943498,0.467655679941506,0.483867485264942,0.533461084026843,0.583088991098465,0.461660378079773,0.471963187560981
-150,grasp,12m,FO,0.46797688751447,0.593006044029854,0.518597907633502,0.501676396629837,0.554017101982141,0.421837083528014,0.460079580813795,0.436365279639876,0.448863842698683,0.508670614889805,0.478161705208285,0.524103442155129,0.596793635238586,0.467468262256097,0.482649683559019,0.525046817875259,0.586313809256037,0.467358095977803,0.473582052493951
-140,grasp,12m,FO,0.464945424658706,0.597047294823576,0.524653343256179,0.504041109066919,0.553860316095168,0.424250548948665,0.452857335670764,0.438180347819491,0.450276778074228,0.503988059112937,0.47208212466668,0.52207708437927,0.59093614584195,0.467192051969398,0.481266282022945,0.514950592201302,0.589200476006238,0.473285191791809,0.47512654243576
-130,grasp,12m,FO,0.46288839340301,0.60088193601601,0.530124914946809,0.505676387021319,0.553800546218438,0.427428595854211,0.447075402935207,0.44070668498147,0.451401058958125,0.499166849628905,0.466075557410054,0.519286870024139,0.585384782714061,0.46665182621713,0.4795609058382,0.502615313012359,0.592060779173318,0.478952169968228,0.476941394941474
-120,grasp,12m,FO,0.461373592041397,0.604738333026469,0.534073464172074,0.507430634066998,0.553820481252944,0.431203671890338,0.442490213201688,0.444786959923415,0.451723042071052,0.495256591499347,0.460887947941683,0.516068459772242,0.579563348631558,0.465739756674243,0.477622301598049,0.490118417949986,0.595423690306319,0.483724281569117,0.479112579835438
-110,grasp,12m,FO,0.459660962273298,0.608406070535859,0.536568431568743,0.509003016364878,0.554168111014165,0.435211180367992,0.439313506360216,0.450069129962288,0.4517029700568,0.493033322095865,0.457510778827355,0.512735176832711,0.573969535355528,0.464392308170222,0.475315417508367,0.478700605060218,0.599136075861056,0.48766621227317,0.481363766593667
-100,grasp,12m,FO,0.457664029360829,0.611478734956025,0.537838716297719,0.510164848501359,0.554701573334545,0.439906827137412,0.437791916274478,0.456057368419506,0.452853964264424,0.4933536929086,0.455912847434198,0.509315186237631,0.569092394207354,0.462971274419463,0.472907051004614,0.467692877428465,0.602467119388779,0.490747397763999,0.483353448815465
-90,grasp,12m,FO,0.455055125558144,0.613921259249199,0.539392136980089,0.509464965633873,0.555693048105101,0.445238051318705,0.436979980547286,0.46241196708215,0.456114146999957,0.496113341994374,0.455321404196608,0.506009281142525,0.565031825215869,0.461867814172778,0.470449666621963,0.45735608499869,0.604941413264027,0.493168788543747,0.484404281818168
-80,grasp,12m,FO,0.451828257730958,0.615658739314072,0.541000180372325,0.507168657044725,0.556845130984904,0.450189943636052,0.436187463676044,0.467848906049389,0.461830502816976,0.50025658315428,0.455459581005862,0.503168424345982,0.561535337320411,0.460697664613888,0.468367311965354,0.447615171520246,0.606823724983029,0.495774237308571,0.484808527035689
-70,grasp,12m,FO,0.4483182660864,0.616726771921102,0.542671032831354,0.504521874005851,0.55715874856491,0.45434924968533,0.436346951953695,0.471183480269183,0.469132962438275,0.504802574184154,0.455821908590969,0.500885854302169,0.557777514019093,0.459803044028836,0.467197636684625,0.438680640280443,0.608419057089164,0.499236152996079,0.485503543793707
-60,grasp,12m,FO,0.444949755328833,0.617402408632588,0.544258522640375,0.501848309608635,0.556617329205826,0.457841476266244,0.437162787508435,0.472940003445109,0.477330292314052,0.509458011934043,0.455661174455163,0.499681085255179,0.553794630448578,0.459867800024059,0.467145946880536,0.430661197161035,0.609645038443058,0.503178266461432,0.48687002931119
-50,grasp,12m,FO,0.442428706471331,0.617641531507112,0.545618654335945,0.499096404746421,0.554851715355061,0.45997472155971,0.438324882181969,0.473836469150978,0.4857511181737,0.51470512600694,0.455842133316645,0.499630296923018,0.550426857681599,0.460928725785702,0.467638557842874,0.423516362269058,0.61002318699615,0.50710061561962,0.489028649061463
-40,grasp,12m,FO,0.441345065265911,0.617731410834602,0.546052201104015,0.496018548572777,0.551681926782051,0.461286444661921,0.439123920577224,0.474174298111353,0.493965358825783,0.519862108152539,0.455664263596948,0.500439330990968,0.548211182780175,0.462886529528648,0.469059765124493,0.417167135746917,0.609049619617927,0.511144167189453,0.491861120668069
-30,grasp,12m,FO,0.442391279612481,0.617726905128011,0.545788854876048,0.492178185320891,0.547317113780337,0.461938850251541,0.438492140906146,0.473530870635448,0.50139966907272,0.524722616098488,0.454205358301324,0.50188022063686,0.546831103547924,0.465759791113536,0.471060184441278,0.411467081035828,0.607068155944979,0.515525740842411,0.495426160856441
-20,grasp,12m,FO,0.444933909295078,0.61774096058477,0.545336615916648,0.487383954991771,0.541467628082348,0.462039859762706,0.439108768864149,0.47173859745664,0.508066217465731,0.528919002317916,0.451321642593835,0.503620182637439,0.545996576437858,0.469213508917817,0.473205676309287,0.406197292480462,0.604891644639686,0.520445296028399,0.499999079706502
-10,grasp,12m,FO,0.448477502128925,0.618238219624699,0.544384946218763,0.481811345887237,0.534057874210683,0.461243424762484,0.441031029507025,0.469391667390636,0.514417687528853,0.532492666335757,0.44554698033332,0.50560845498216,0.545040155427619,0.472661581578011,0.474967052185874,0.401221083801289,0.602748936203737,0.525212355011147,0.505349138917737
0,grasp,12m,FO,0.452198311028428,0.619303981320132,0.542672913802982,0.475755001634296,0.525729707315891,0.459454283365833,0.444387623416485,0.46662062387936,0.520745277285191,0.535749146491628,0.437867171567136,0.5077575358008,0.543854391092728,0.475545286329611,0.476779881883035,0.397799228620206,0.600223850021346,0.529430441616771,0.51130466739982
10,grasp,12m,FO,0.455905281511066,0.621062289809646,0.541438984719201,0.469213116331631,0.516715256248598,0.456690494448403,0.449771192615868,0.463932932581582,0.526619072894068,0.539069471191043,0.429082653061683,0.510147979030258,0.542399301869056,0.477920069854788,0.478871335829429,0.396817367534998,0.596761453532767,0.533278536350338,0.517735533874556
20,grasp,12m,FO,0.459151863650392,0.623205493285383,0.540344008034593,0.462596977187138,0.507500123944666,0.45391135391422,0.45735803322701,0.461843576277361,0.532054499793175,0.543137922092593,0.420183979697799,0.512468342282991,0.540306527774457,0.480132036158156,0.481523283154349,0.397835933468433,0.592196897458029,0.536667478590055,0.524326600727776
30,grasp,12m,FO,0.46189990732302,0.625677662684878,0.538641962827892,0.456319456452303,0.498335046554485,0.451786659729996,0.466825859300663,0.460213565336309,0.53761710212941,0.54807541322756,0.411015257914817,0.514609041880588,0.538240657250395,0.482148841417121,0.485184874281004,0.400599215779659,0.587261820224338,0.539377391511095,0.529862379312691
40,grasp,12m,FO,0.464691181697258,0.628299613120158,0.536829691240258,0.450562655887584,0.48970222149057,0.450462132041082,0.477543388482886,0.458987564499082,0.543411083485289,0.553206890148501,0.400626600764761,0.516207211877447,0.536172229744667,0.483392616183563,0.489079377980491,0.404814021813745,0.581371620502371,0.541444173732046,0.534170496113349
50,grasp,12m,FO,0.466989595601113,0.630554325505475,0.534897264296028,0.44620769298536,0.482416364746817,0.450405937373638,0.488357630290579,0.458479932198334,0.548863363604373,0.557900750417529,0.390138663837751,0.517079437828308,0.533514438985239,0.483826026360955,0.492635102238796,0.409652843543398,0.574741341951588,0.542541048080449,0.537000799425144
60,grasp,12m,FO,0.468830484697451,0.632640364359469,0.533130197963704,0.444032635540894,0.477394318787299,0.451780667746248,0.498666487300308,0.457856259771715,0.554187572228312,0.561632812245421,0.380243699880912,0.517111655054757,0.53063976196799,0.483323610949607,0.495263337633339,0.415896440804683,0.566888309508937,0.54268118525213,0.538188744141077
70,grasp,12m,FO,0.469966475711343,0.63391652211937,0.532213019181154,0.443595115777579,0.474026050745219,0.454221292167394,0.508098145868959,0.457228744961847,0.559691954432604,0.563989815264782,0.371514072505883,0.515939545007923,0.527554363597389,0.481889358325453,0.496819524049997,0.423586042021885,0.558026122387711,0.542602240505464,0.537794905543591
80,grasp,12m,FO,0.470161035608333,0.634045134643162,0.531659161559391,0.443303409870461,0.471816820361839,0.457358551064909,0.515941734980184,0.456787223797482,0.565680095966853,0.564877501755712,0.364749961722233,0.513775968075915,0.524995810308768,0.4798354644162,0.497324893107762,0.431995810243021,0.549164316827445,0.542646890052348,0.536660841589066
90,grasp,12m,FO,0.46965355381922,0.63332346606699,0.53050345652111,0.443326786831572,0.470369549047999,0.460864556915918,0.521399423286679,0.456441963065964,0.571662695340512,0.56490790855164,0.360021295675655,0.511127805965449,0.522904104576969,0.477447662615434,0.497309662505762,0.440445474679528,0.540431182200924,0.54287002229794,0.535146567937054
100,grasp,12m,FO,0.468933788838356,0.632174799196159,0.528242425462105,0.442900056521924,0.469343249826379,0.463746829355579,0.524770541676905,0.455915954411329,0.577789454438566,0.56463423393687,0.357229249840759,0.508426996790997,0.521178655421175,0.475306497274037,0.496593098728617,0.448119306580815,0.532283645976814,0.543607860899306,0.533490237168931
110,grasp,12m,FO,0.46851178874737,0.630914309322858,0.524869763469932,0.442020772141373,0.469862957026899,0.46572479521754,0.526444441671203,0.455755012322126,0.58342575294124,0.564270686845092,0.356561387817154,0.50562999287267,0.519695372372716,0.473356683610634,0.495600952318628,0.455100338685977,0.525472561532579,0.544538802376829,0.532047887139502
120,grasp,12m,FO,0.468378268276654,0.629102190769735,0.520157828873721,0.440806672027029,0.471058237081966,0.466804758536967,0.526811848246177,0.456025302826787,0.588047912011927,0.563817368582485,0.357112658069017,0.503098183223421,0.517550806429209,0.471551702075646,0.495021457372352,0.463865601574934,0.519997656394974,0.545648910842603,0.531434924419801
130,grasp,12m,FO,0.468592174503189,0.626849034423842,0.515367626997011,0.439195319938417,0.472510619446312,0.467170263174634,0.526427722662419,0.456848778658439,0.590863845298168,0.563108784984861,0.357805274808256,0.500211085512143,0.514658308217194,0.470673455049942,0.494456695747501,0.474857221807181,0.515010103220903,0.547011681930935,0.531884293818183
140,grasp,12m,FO,0.468807415818932,0.623909793427338,0.510497649309351,0.437702780436908,0.47372000558719,0.467563491106614,0.524718378550767,0.458151988772455,0.591112420401408,0.562326051435286,0.358717789200313,0.496197420739379,0.510750554547354,0.470277082396396,0.493907627833554,0.485864772240286,0.510522604330923,0.548066816655312,0.533463320369852
150,grasp,12m,FO,0.468558440985964,0.62055612625939,0.505301603615618,0.436007037191751,0.474400513794197,0.468335726908242,0.522434806686997,0.46027328987389,0.589358051094979,0.5611212795183,0.361103370409176,0.491143331475707,0.506167731181216,0.470013462008707,0.493464175340138,0.495422546817163,0.506657502534918,0.548774930602703,0.535673170274416
160,grasp,12m,FO,0.46794767767069,0.616879345866252,0.499831366320096,0.433963194084708,0.474679805376479,0.468882080373185,0.520513850162384,0.463013485735794,0.585674497226879,0.559417603249794,0.365738974346807,0.485848681668168,0.501919164772371,0.470347436568464,0.493400762774716,0.504092029602484,0.504375147376521,0.548744215540405,0.538446889301787
170,grasp,12m,FO,0.466908812655486,0.61360635717668,0.494019045783334,0.432182504504241,0.474898442698908,0.468763792832424,0.518714137181275,0.466264597396855,0.580786561994208,0.556833737572099,0.372903637230969,0.481212717883991,0.497358647213959,0.471210691046721,0.49399199175973,0.512106734092315,0.503967932975246,0.548090899647504,0.541482803184682
180,grasp,12m,FO,0.465548392193428,0.610976352160074,0.487809219718983,0.430674179871759,0.475591988287474,0.468203540413181,0.517106599421062,0.469549983220905,0.575835365613838,0.553104579164996,0.382736548864951,0.477436700339779,0.493464446155246,0.472467375182147,0.495450448255188,0.519462712222825,0.504688976886992,0.5470885121116,0.54470031267059
190,grasp,12m,FO,0.464125583747152,0.608903364177918,0.481739261628856,0.430733832311384,0.47751126999353,0.467470596144842,0.515672284421112,0.472203678262544,0.57133049636012,0.549279023431194,0.394867824023631,0.474882314767865,0.490558350668312,0.473820563076556,0.498206360593244,0.525701557314528,0.506239909779151,0.546029122997953,0.548209449562243
200,grasp,12m,FO,0.463092543634513,0.607291470436898,0.476295300857379,0.432506835570241,0.480377977137955,0.467551133404143,0.514956103241115,0.474442470259749,0.566957619016167,0.545769731755012,0.408219924809154,0.473720068159508,0.488145554535363,0.475404659451318,0.502130568065653,0.53114367446676,0.507682840811971,0.544781316148182,0.551525869069082
210,grasp,12m,FO,0.463049801306212,0.605761847871872,0.471328160061739,0.434555646114165,0.484344631279723,0.468659994063009,0.51584951804199,0.477147495120731,0.562236583389235,0.543030688564939,0.421368865448834,0.474032506097505,0.486110224153967,0.477550494319914,0.506290681280175,0.535031775233711,0.508299461635477,0.542188965323365,0.554424126170709
220,grasp,12m,FO,0.463801565262902,0.603992040158146,0.466837095902251,0.437159140771651,0.487424174382416,0.470618899723467,0.518224395018045,0.480282311612381,0.557640933565984,0.541410443325622,0.433623640781498,0.475086085050019,0.48470908312883,0.480035428303543,0.511014834274061,0.537401534941406,0.508915059939953,0.538105820407484,0.556922302655522
230,grasp,12m,FO,0.465156526679841,0.601903014121237,0.462063480542064,0.439683032094031,0.489231623033165,0.472058788957281,0.523147864678919,0.483229541214022,0.553261141847824,0.540886007021904,0.444966624309954,0.476222337106056,0.483508911629302,0.483390287678108,0.516188129391559,0.538698789745481,0.510209332700516,0.532872757856952,0.558943847611484
240,grasp,12m,FO,0.467073661890604,0.599740277917176,0.457948630833384,0.441324457759498,0.489345724811607,0.471899241419268,0.530516006163388,0.485422162304457,0.548121364632504,0.541896518946696,0.455678095098303,0.477550968149044,0.482005153358341,0.487392822006785,0.521177661895364,0.538926658724928,0.512129051708509,0.526873980824008,0.56091847082612
250,grasp,12m,FO,0.4692574504586,0.597384267643821,0.454214900768473,0.442321376785473,0.488618161948161,0.470358009674342,0.53834907130245,0.48766367553839,0.542328919029336,0.543956048065414,0.465370503156538,0.479185087541091,0.480171273825858,0.491596461244786,0.525544808531123,0.538214346551852,0.513889711730348,0.520682643562347,0.563241735879181
260,grasp,12m,FO,0.472382397889205,0.594922674038843,0.450656023468666,0.442625348970878,0.487522167652364,0.467309908146452,0.545333334855444,0.489742225367312,0.536117732421857,0.546478917909821,0.473907389986253,0.48178281899552,0.47840201943793,0.495098535354112,0.529424523865741,0.535919914666874,0.515076104118861,0.514442350198325,0.565745883267727
270,grasp,12m,FO,0.475998767792379,0.592548581043228,0.447910830544424,0.442183517051115,0.486753661652797,0.462729406953115,0.551841640316247,0.491777296338323,0.529935843210786,0.549156525619704,0.481284737121586,0.484970006984144,0.476887689964027,0.498313789707136,0.532976064649985,0.531651153167608,0.515462017629464,0.508691644936978,0.568075999215307
280,grasp,12m,FO,0.479343980612766,0.590101685613964,0.445795824569985,0.441530640821786,0.486001876465045,0.4574109181926,0.557177371513326,0.493042309669263,0.524343236068978,0.551820130468464,0.487246551890771,0.48845487787546,0.475751936560676,0.501779286884912,0.535890176686838,0.527608466540336,0.514969115557156,0.503423456658772,0.569882224317204
290,grasp,12m,FO,0.482227666106545,0.587528141132405,0.443250572889104,0.44089336442592,0.485495950750594,0.450795225221372,0.562055201696948,0.494212314469349,0.519324512714424,0.55432083823166,0.491772047908261,0.492619251498139,0.475583939357486,0.505735590569504,0.537940877226375,0.523922724272907,0.51362378261292,0.498737369776728,0.570617047615792
300,grasp,12m,FO,0.484133369813875,0.584968892390745,0.439247424097479,0.440413985910918,0.485419574452068,0.443592520818938,0.566277761334935,0.495098105674576,0.514151585006513,0.557331671645784,0.494653137213179,0.497227873248248,0.47708778400267,0.509992768031631,0.539962744000084,0.520189044461594,0.511369019300232,0.494268618381588,0.569964238933866
310,grasp,12m,FO,0.484484189473794,0.58279534951885,0.432819470640927,0.439900723935572,0.486115889601645,0.436279925266318,0.568789865878339,0.496094014855465,0.508548383630822,0.560573521271255,0.496315725256358,0.501787831960013,0.480728554462852,0.514037940602491,0.542148093720764,0.51683915096864,0.508353996717052,0.490566282304506,0.568325547231957
320,grasp,12m,FO,0.483139588329162,0.580918718597584,0.424857539881599,0.43903467788537,0.487313790936727,0.429021180346247,0.569956415210914,0.498059713716574,0.502639477495131,0.563802685656072,0.496489142582664,0.506140568867492,0.485755423437087,0.517764866443251,0.544546963214934,0.5132857736936,0.505109521628763,0.488005910094896,0.565505477838356
