Time,Condition,Age,ChannelPair,connect_overtime_LA_EEG_12_P04_CTS_MTH_chanpair_12m.mat,connect_overtime_LA_EEG_12_P05_CTS_MTH_chanpair_12m.mat,connect_overtime_LA_EEG_12_P06_CTS_MTH_chanpair_12m.mat,connect_overtime_LA_EEG_12_P07_CTS_MTH_chanpair_12m.mat,connect_overtime_LA_EEG_12_P08_CTS_MTH_chanpair_12m.mat,connect_overtime_LA_EEG_12_P10_CTS_MTH_chanpair_12m.mat,connect_overtime_LA_EEG_12_P11_CTS_MTH_chanpair_12m.mat,connect_overtime_LA_EEG_12_P16_CTS_MTH_chanpair_12m.mat,connect_overtime_LA_EEG_12_P17_CTS_MTH_chanpair_12m.mat,connect_overtime_LA_EEG_12_P19_CTS_MTH_chanpair_12m.mat,connect_overtime_LA_EEG_12_P20_CTS_MTH_chanpair_12m.mat,connect_overtime_LA_EEG_12_P21_CTS_MTH_chanpair_12m.mat,connect_overtime_LA_EEG_12_P22_CTS_MTH_chanpair_12m.mat,connect_overtime_LA_EEG_12_P23_CTS_MTH_chanpair_12m.mat,connect_overtime_LA_EEG_12_P24_CTS_MTH_chanpair_12m.mat,connect_overtime_LA_EEG_12_P25_CTS_MTH_chanpair_12m.mat,connect_overtime_LA_EEG_12_P26_CTS_MTH_chanpair_12m.mat,connect_overtime_LA_EEG_12_P27_CTS_MTH_chanpair_12m.mat,connect_overtime_LA_EEG_12_P28_CTS_MTH_chanpair_12m.mat
-1000,cane,12m,OC,0.441847044471267,0.426862087378143,0.469133210027,0.52677135720712,0.508394330892367,0.62945146732024,0.466981339621896,0.486862742275032,0.499107982755815,0.55870400660754,0.556925165504048,0.480961852968831,0.492977205240492,0.514246782387824,0.514933895393637,0.433360857403791,0.493214615209289,0.541928832854276,0.356407848427693
-990,cane,12m,OC,0.444004687084606,0.437248058155715,0.465284806386808,0.522715635128352,0.50909771273313,0.633187517727359,0.473014097688095,0.491349498466405,0.492761266576145,0.549422065401905,0.557928027140146,0.481601671558429,0.495875175778331,0.513424266919225,0.520431853888469,0.431154211193242,0.494359799450996,0.540394154305547,0.365661578226132
-980,cane,12m,OC,0.448495519751199,0.450227757413223,0.46318920242832,0.516323465575032,0.510405183742737,0.635623896523318,0.479203198064799,0.495330174833917,0.485225582721012,0.540108218548781,0.560472640606225,0.482316069633058,0.495495176712834,0.509175337981425,0.526761618855369,0.429579764904795,0.497397440162998,0.537415015950971,0.375333926058913
-970,cane,12m,OC,0.455018370359671,0.464540191164432,0.465643440644819,0.510127483705813,0.511663885611061,0.635304152926906,0.484332486282012,0.497324420957219,0.473588457711525,0.528106031321009,0.563152359281899,0.485527694844065,0.494064270844521,0.503216430230166,0.534954520526551,0.426712296357677,0.499848486093023,0.534755094724402,0.383970252117711
-960,cane,12m,OC,0.461469186003314,0.477530229493902,0.470781639862385,0.504883902545747,0.514598090199078,0.630649215583434,0.489348712214583,0.499014228489735,0.455721905662743,0.512932516838198,0.564902253694471,0.488579207673767,0.493493512072285,0.499274559366881,0.542626807584171,0.420860733715181,0.498387406084747,0.533097319433418,0.390207446806854
-950,cane,12m,OC,0.467323861328131,0.487122979076981,0.47624997223178,0.500074934595928,0.516849600884744,0.619151200206336,0.492660181307707,0.501575563326892,0.426350145647432,0.497640073175413,0.566811031680794,0.489653385785542,0.492065004893449,0.498867425876691,0.544932054912307,0.413213298214617,0.497096597158152,0.532370784371834,0.398823725999762
-940,cane,12m,OC,0.472603267046336,0.493476527467088,0.48065526857133,0.493207085906019,0.519916808706664,0.604187228123082,0.495253616146181,0.504408351861329,0.392091499749822,0.483445328924152,0.565888590690329,0.489541885957339,0.489155238048252,0.499127634770265,0.541653539628804,0.406890154569024,0.496112957532527,0.533004640644083,0.410793156241035
-930,cane,12m,OC,0.478206374903833,0.499275190948982,0.48244030404552,0.482163215531469,0.524762149639901,0.589872569451569,0.497232812353096,0.504704219293301,0.361219796102909,0.473036183156054,0.560794414700578,0.489106846744901,0.486528858175805,0.499260346310881,0.536250632601461,0.401459794462773,0.497881032791519,0.534805534302213,0.422107018640308
-920,cane,12m,OC,0.483583855855255,0.505040103112971,0.48215226725594,0.467319729332214,0.528605830021668,0.577400313053569,0.497983434136584,0.502842586781958,0.33597551276051,0.468346514235743,0.550059901416349,0.488450112319898,0.483070439111176,0.498583907485201,0.53074529948858,0.397497784737062,0.506032685394198,0.535318428456575,0.42863050737281
-910,cane,12m,OC,0.489678697511329,0.511926235463808,0.483111236010889,0.450282945436971,0.528742659188047,0.564252625041023,0.496888723205422,0.503041811058511,0.321771486240365,0.465695699168666,0.536768419148886,0.48614874930444,0.479427002233893,0.496763346047317,0.525356439486962,0.398079646930845,0.517107813863005,0.533607364223127,0.429797592078842
-900,cane,12m,OC,0.494759851393838,0.519931874043972,0.485988104389648,0.432488432869126,0.524262658006006,0.550412489710307,0.494747223465513,0.506326438335433,0.318106115910168,0.464537390978485,0.525192130181502,0.482423059933404,0.474724250865164,0.49314267653664,0.519273849686946,0.404810384026421,0.525095615207717,0.530392776090445,0.428310096880401
-890,cane,12m,OC,0.497674227221058,0.531192845536819,0.488757641451252,0.414530855145858,0.520016059768983,0.537344756645062,0.492993896232076,0.510308643307549,0.322327931667953,0.466365106123574,0.516779360515376,0.476199570268253,0.470577856065855,0.490041292221207,0.513467603940811,0.413570384123654,0.529969887241666,0.526284896287134,0.425865971134106
-880,cane,12m,OC,0.498186945046708,0.544109051728963,0.487991659786321,0.398052813065901,0.519050090582463,0.528954475592057,0.490579937290772,0.513836852976671,0.326533140351677,0.468890075963059,0.513921911193173,0.469973230949407,0.467720910370255,0.488144597864136,0.507159948666863,0.419661395002435,0.53438686770034,0.522540910250922,0.423042040068097
-870,cane,12m,OC,0.496527432518364,0.556256232242651,0.489169324518496,0.38698369271439,0.520696101320317,0.527320599964546,0.484686055191492,0.515911812008762,0.330805771931183,0.471440678819083,0.514101347685857,0.463126803256604,0.468615287834653,0.486666873659708,0.501217543933919,0.426863005480398,0.538945208004681,0.519027068671986,0.420164800355549
-860,cane,12m,OC,0.493121289692131,0.565173561978077,0.495453217716936,0.381844967577986,0.523452340928873,0.530302313682171,0.477546181453186,0.517555053895451,0.338074424060007,0.472586705184843,0.514864455427025,0.455894524766062,0.473750704875452,0.483917324242654,0.497558960578055,0.438509813248691,0.542754472613959,0.515004321607408,0.419817169612505
-850,cane,12m,OC,0.490888201332836,0.568381687549344,0.50249030550908,0.380731737042297,0.525422899838856,0.534669920871027,0.472936422066655,0.518121138737644,0.348544960035164,0.473774930842308,0.513231590678498,0.450270162435661,0.480169491334427,0.480356260009375,0.496023833495292,0.456444763911044,0.543441682874085,0.511921027831667,0.419120003951725
-840,cane,12m,OC,0.490437552557845,0.567353781941007,0.505778381969043,0.384359044477881,0.527876253113481,0.538313832452793,0.469534592339508,0.517403209112316,0.362795873737067,0.477102929031195,0.506854579988347,0.446589886597926,0.486138182852924,0.477447730453299,0.495328217869745,0.478017634409377,0.542116422987711,0.505463714114577,0.419033069767085
-830,cane,12m,OC,0.492007408567828,0.563717248063329,0.50772278035751,0.392226639827441,0.532519414895382,0.540751006550547,0.466426498485457,0.516851944925221,0.374354764305907,0.483504913562037,0.498054171287317,0.444643091386215,0.49166880390595,0.47679375524487,0.494913668223188,0.497743846947658,0.540138871093477,0.495200320720128,0.419388025567424
-820,cane,12m,OC,0.494092074659708,0.557462268496417,0.509815746452001,0.398910742979355,0.540124629844625,0.541775534493377,0.470389210883216,0.516993573396721,0.383520911284141,0.492580986454125,0.490117226389762,0.445013955650124,0.495137286798973,0.476905011993291,0.497511324109812,0.515163932108931,0.535219518550936,0.48246537661009,0.420212135734965
-810,cane,12m,OC,0.496319715206992,0.549776503092462,0.509584017083459,0.402709932179485,0.548274040326806,0.542191864028377,0.479542742638332,0.518765721993839,0.391811924376764,0.503696745185216,0.483338830257657,0.447261999482305,0.493462002630594,0.476591348684181,0.502262964004851,0.530574426321934,0.526962142817842,0.469836535713327,0.425673054472297
-800,cane,12m,OC,0.500118240972251,0.541677386113092,0.505644218075762,0.407884748536062,0.554425675175451,0.541573314234774,0.489885426664364,0.521161827599448,0.404134485789341,0.512890591957896,0.483845502417603,0.451455666390377,0.488244042930614,0.474744593470001,0.507589458674628,0.540878650044543,0.51893027679469,0.45992700050638,0.433315472040344
-790,cane,12m,OC,0.504761731564521,0.532082765376521,0.499424951717248,0.414836895615977,0.559336127830168,0.539511733540797,0.500503567706781,0.523154257512343,0.415738394124009,0.518527996956598,0.494708565222129,0.458040728758038,0.481831241500324,0.472439708464067,0.512496285473871,0.545593180065507,0.514742790476075,0.45314830982895,0.437045928944875
-780,cane,12m,OC,0.507779821866827,0.520135974649766,0.491998575028947,0.424652641982032,0.562649848917891,0.537311136792176,0.508647741217558,0.525161494011563,0.421850220969121,0.521570740426404,0.510225983702633,0.465284942226881,0.474077167329452,0.474125970226831,0.516010879661602,0.549684064055197,0.512036912454428,0.449687813963295,0.435603832494083
-770,cane,12m,OC,0.509457083420831,0.508100449599681,0.486084372168637,0.43402250515549,0.56379742614549,0.535489004392444,0.515961620762813,0.52641228296057,0.426438865463904,0.520338679973856,0.527894479572595,0.472513621410126,0.468166509971514,0.480002156840573,0.518452886032559,0.552186566388321,0.512228530058525,0.451382860680177,0.430832260824023
-760,cane,12m,OC,0.511282267236984,0.497075192926948,0.481446791968384,0.439633448444455,0.564005043066358,0.537254162242071,0.521354902848062,0.525985357611227,0.427580696468873,0.517171235263302,0.543923083005463,0.477567253841132,0.466854330361408,0.488291622496373,0.517513769239758,0.555098007186285,0.514327173449456,0.457548737264258,0.428728098749814
-750,cane,12m,OC,0.512425715687946,0.489147524319078,0.480010655092415,0.440914130470166,0.565804086494293,0.539482569507755,0.522662763259282,0.524449464356317,0.425474295804322,0.512620183391996,0.559355564261544,0.48133291517537,0.469120602556609,0.497173156434899,0.515017664907863,0.556412207021748,0.517031710674137,0.465655617054104,0.431369558305823
-740,cane,12m,OC,0.512023518301799,0.48366246042616,0.481192452738647,0.440056332733755,0.569012680065532,0.535816296467832,0.517524574117391,0.520228810166965,0.421011930907078,0.507353204875183,0.574503909076915,0.484205947655307,0.472506600409447,0.504702304338379,0.514937436765187,0.553171408018772,0.522093138368423,0.474090706157815,0.43709118563891
-730,cane,12m,OC,0.509435672599921,0.479271850976524,0.483660860789884,0.438713532540426,0.57378046028202,0.524461829370273,0.508998347736487,0.515665177878156,0.414810552336749,0.501497310135859,0.58802910740888,0.487219074495689,0.475780193327831,0.509752981603268,0.519016520569432,0.545336795660079,0.52764057231822,0.481611678586867,0.447336052126748
-720,cane,12m,OC,0.503807814327143,0.47594394186575,0.480836195389327,0.43832112550283,0.5776174000812,0.510429241319549,0.499633123475006,0.510693866935705,0.406713873933111,0.495188197570544,0.59976285498357,0.491463126916961,0.476858370028306,0.513282773616271,0.526327958422216,0.534781502817051,0.531126790267045,0.48752455487474,0.459362685819988
-710,cane,12m,OC,0.497357971704969,0.475373172657148,0.475919156752661,0.438576359722704,0.57965582164317,0.498061602210339,0.491831389879666,0.505509818926908,0.400504101543601,0.488926704503006,0.610982042598928,0.49510254047469,0.474480159869618,0.515097358639671,0.535017421298139,0.521419577901657,0.530911189492366,0.492714117652806,0.469898851639949
-700,cane,12m,OC,0.491317762004108,0.475760970397496,0.470876378683489,0.442419924567861,0.580407029153165,0.488504865482967,0.487683086255583,0.501061229026083,0.398781966468924,0.4823334714107,0.620114366686224,0.497277867860443,0.468461578677125,0.514380615507373,0.54217269624411,0.507450534958953,0.528896062226878,0.498781110139599,0.477083853747585
-690,cane,12m,OC,0.486639864621436,0.477848008626359,0.465698127352236,0.452724353127214,0.5803300728918,0.480824764293684,0.484569451311285,0.497678768324442,0.401551405245295,0.476404853277543,0.625168317481903,0.496744663562022,0.459958975720701,0.513249839259907,0.545995367453883,0.496358338301937,0.526421394304944,0.505219123139983,0.478953317496371
-680,cane,12m,OC,0.485498765367755,0.479291230290144,0.465486039344395,0.467584593828589,0.57816199475481,0.474252864760658,0.478651140429577,0.494876507443746,0.410959598359169,0.471051891377755,0.625168609746085,0.492932744851214,0.451477481479839,0.511343601730088,0.547135570562909,0.490076419235516,0.523039490054825,0.511711347885478,0.477020676848409
-670,cane,12m,OC,0.487797982083168,0.477544190817918,0.467073934906641,0.482328938229575,0.571960012881708,0.472770897228707,0.46861046776451,0.493180365939429,0.429101820921052,0.46867823646679,0.622464335209493,0.48825305873081,0.444180712590509,0.506679023645218,0.546177178538933,0.487867803043149,0.521626524394748,0.516145625974991,0.47313561921015
-660,cane,12m,OC,0.492184427287127,0.473322919777514,0.466002514228804,0.494936331237624,0.558915276265491,0.477552449471739,0.459254902469971,0.493238617201114,0.449902567589801,0.468730268700617,0.622090910795121,0.486259020755738,0.441919474749113,0.500760925660329,0.542659115427198,0.489011450561303,0.520886570185466,0.516715945490717,0.470751513371081
-650,cane,12m,OC,0.498010311976143,0.468690315218904,0.461103905162205,0.505213187857771,0.542549254910514,0.48686729000159,0.450492716638449,0.495666648367772,0.47570955416938,0.472114353975995,0.624419359285208,0.485620820708315,0.445313368215288,0.494708971464811,0.537968102467861,0.493284428100856,0.517136450780285,0.514176676711764,0.46959736555774
-640,cane,12m,OC,0.504839977826747,0.463916102897264,0.454495649912774,0.515547781222718,0.525752508681393,0.496541372627748,0.443808503878056,0.501573424754562,0.506485678674617,0.478048541967598,0.627379405633887,0.485594546466593,0.453585101335634,0.489713628164915,0.531742110086272,0.50131429773171,0.513017858612762,0.509069148319885,0.468844787452492
-630,cane,12m,OC,0.512094204911075,0.462409088973106,0.446796217001849,0.524001654546306,0.509210829662027,0.501370548546995,0.439934304239092,0.509372970869887,0.539141818283339,0.485397372296901,0.628238975212835,0.487589795161662,0.463529031215933,0.487068842634497,0.525725191385228,0.509646467939418,0.510429530196088,0.503761494992029,0.471156669760697
-620,cane,12m,OC,0.517530530435754,0.466269963390574,0.439682744374907,0.527173125153846,0.496101598333013,0.502254669961294,0.440717037546635,0.51495919723049,0.569587628307735,0.491464695778797,0.626893232514642,0.492875171604795,0.47292641706154,0.485434565489933,0.519845790733507,0.51666105602413,0.508599766965966,0.497879677055142,0.477904307593771
-610,cane,12m,OC,0.520271239154202,0.473719592185608,0.435701934406351,0.52961338277096,0.486839384859928,0.499642640384805,0.444401820957048,0.516836246907553,0.596344734794893,0.497072643726858,0.626455616285483,0.500791943623197,0.480827620577524,0.482113016624411,0.51476502203635,0.524595032112187,0.506604940920392,0.491088945728893,0.487478536407733
-600,cane,12m,OC,0.519687393730165,0.482834141183878,0.434582942419626,0.53368408857365,0.481827540132497,0.494704895794481,0.446675821590575,0.516749755928588,0.614983035269509,0.504132797478136,0.626318774866639,0.50844681369802,0.486149178217569,0.477804078787134,0.512770994348636,0.534685123026722,0.505153149934682,0.485751758684131,0.495610892603244
-590,cane,12m,OC,0.519522887303039,0.488647185021764,0.435504312857125,0.541925352462765,0.479222044578361,0.487401497803473,0.444856179732966,0.515083086674517,0.624866723567283,0.510803702919723,0.621803088007855,0.514020332656819,0.486944363163047,0.473937117962405,0.513973495922595,0.543529037915757,0.50613094722841,0.483922407808176,0.499092449952367
-580,cane,12m,OC,0.51964822641203,0.491081633552259,0.436381060238487,0.548760032484398,0.479800197824044,0.478786124544922,0.440832851591329,0.514143632307672,0.623670330323846,0.517027282828529,0.614547687955042,0.516294077479646,0.485387542550941,0.470936416854324,0.519453989146582,0.549225081960014,0.506327625844336,0.48445948271837,0.50067890417316
-570,cane,12m,OC,0.517628627429564,0.490708871596487,0.437325407571491,0.552998767052294,0.48275037446731,0.471372576066122,0.438755774052168,0.51399685392364,0.613871882832286,0.52288838299597,0.60338961109155,0.515887393327433,0.483026414344952,0.471037078831375,0.527782294147115,0.550015566198864,0.502564121017188,0.486794828233122,0.503321200527331
-560,cane,12m,OC,0.51456499721806,0.490366512162319,0.44383485070436,0.555922763938998,0.485201999266779,0.463045486620855,0.44244265263529,0.513722524861978,0.602233893014325,0.52674030231101,0.587615034062384,0.514275635631555,0.480733003582554,0.473730520941867,0.536904277043585,0.547934361216214,0.494923061518044,0.488850600455835,0.506128715960905
-550,cane,12m,OC,0.510981957828413,0.490537357123251,0.455784193972442,0.557561834158496,0.486130289936355,0.454998174386644,0.445440247218004,0.511834454884209,0.594724632104133,0.5267595899025,0.575286189619145,0.512220439765399,0.476711219711571,0.476316336243566,0.544886184376563,0.544960399273139,0.484391608903611,0.488517484052679,0.508494599650672
-540,cane,12m,OC,0.509458191921993,0.488877355848863,0.470585475802109,0.559721569878961,0.485232089076072,0.449202711257305,0.444955915463507,0.507639833898466,0.591631254618624,0.524417269028959,0.567626290336156,0.511023670602187,0.472768650101737,0.478062421968974,0.550902572246246,0.542943628626948,0.476243268666551,0.486077357594293,0.511226602904976
-530,cane,12m,OC,0.510070515205793,0.484219003874749,0.484286732422174,0.563769536247426,0.483429772009575,0.447063077438954,0.440019176706904,0.501474844047015,0.591910165046837,0.52090715998286,0.561235189513082,0.51023981616048,0.470471539952234,0.480472934760799,0.553296678407529,0.541472323357297,0.47319526857669,0.481629450444188,0.515615260286381
-520,cane,12m,OC,0.514463694949676,0.479173631934767,0.497084385531344,0.570638607710834,0.480552334435833,0.449941688650254,0.433159424433337,0.497788375225676,0.59304003661987,0.517371944784072,0.555673885242295,0.510249928564723,0.46975744267287,0.485639510404592,0.55316609102106,0.53908569402288,0.473403397324184,0.47472604698441,0.521115309734338
-510,cane,12m,OC,0.520109432288481,0.476439507142874,0.513739400296308,0.578119434780427,0.476699236315537,0.45638601515325,0.424305102280604,0.499167120863001,0.591941736514059,0.513810554035036,0.551386485782165,0.510165891050846,0.470222901974821,0.490920090779738,0.55243607416433,0.540299561692855,0.477822766860071,0.467950757020437,0.52474768004405
-500,cane,12m,OC,0.523488677524007,0.474858160328062,0.534998681956917,0.58409004486864,0.471046560669535,0.462929318175696,0.416428646759163,0.505199904096507,0.587555334485917,0.509625439020057,0.547824739914898,0.510389450967328,0.471088327929346,0.493226844357055,0.552764936177369,0.543898342851902,0.485002842043336,0.462874400425024,0.521100544608295
-490,cane,12m,OC,0.525002215517925,0.471165065554147,0.562511190338759,0.588702352135799,0.463558065374538,0.468040471343606,0.409800591324914,0.513789942269027,0.584267673373552,0.504603026352001,0.541639712728649,0.511081187944213,0.472862273465783,0.493395510801953,0.555021546082061,0.545621839079822,0.497620067680239,0.45937223968489,0.51520210965224
-480,cane,12m,OC,0.525687329782145,0.465649545518595,0.592436355234749,0.591909982454524,0.454768782194793,0.470719545106391,0.400523670257629,0.521075149711448,0.583072060158916,0.501812826474174,0.533754562522787,0.510673067906519,0.475444569956417,0.492512584499937,0.560916334865014,0.542980559788076,0.511683721163142,0.456464184703278,0.513259477283961
-470,cane,12m,OC,0.525474530577168,0.459965659833201,0.619961640791019,0.593019616046293,0.447647011684276,0.472052306597959,0.390805698778331,0.526773088279576,0.581904229184784,0.501362395263397,0.524639839088212,0.508660106919207,0.477099233681055,0.49395904534309,0.56773863117175,0.538744414878673,0.525952449524688,0.454373975470913,0.517943297296855
-460,cane,12m,OC,0.522839376605232,0.456661046545749,0.643268465992825,0.590258362844888,0.44256325066197,0.471238070204382,0.383372162299201,0.531988732982636,0.581006057416429,0.50099068224136,0.517651086876738,0.504969437096481,0.47781874852954,0.498509143370273,0.573013135616988,0.532699743650081,0.539150485191873,0.454649627987412,0.52961237357477
-450,cane,12m,OC,0.518087364273409,0.455709077322114,0.659485219199651,0.586885975979687,0.440775194012536,0.469875661242912,0.375367684980066,0.537223463902585,0.574847389906166,0.501885443301843,0.513715598142345,0.500253427683578,0.476878688082503,0.504909829059051,0.577413686806783,0.527582795176485,0.549567367662005,0.456664346482467,0.546558176446194
-440,cane,12m,OC,0.512974558484317,0.458162535215358,0.670445328158181,0.583547794973631,0.440015185476412,0.471300467841248,0.367313091193159,0.541916407179772,0.563071873150353,0.504336593938983,0.51063895708604,0.496099740127631,0.472858860816891,0.513285096085874,0.5795748558769,0.525232095643242,0.556145012048273,0.45687271697719,0.564076106105754
-430,cane,12m,OC,0.507997057215867,0.465021112463664,0.673680895625246,0.580965458809149,0.439668905158079,0.471476813815671,0.363038569603257,0.544963080739916,0.547220047955921,0.507882421467954,0.508234941978485,0.494649059275164,0.466200814817829,0.522252051253897,0.578913755709939,0.525917784873088,0.561059972034983,0.456364647810326,0.578633402645308
-420,cane,12m,OC,0.505093460627499,0.475494598689172,0.670217902209551,0.579455932567789,0.441346020747989,0.473361983106476,0.361501051329222,0.548990688959506,0.530330601087925,0.511110616088264,0.50336064890623,0.494764892964421,0.460095233236218,0.529851493952839,0.576832497618417,0.529618237092446,0.565082212459663,0.458496023622489,0.590488344307299
-410,cane,12m,OC,0.503860280834377,0.485166328054709,0.658705052425456,0.580039769505828,0.443780361239589,0.478345041883718,0.364215109995133,0.556486217598928,0.511757129019673,0.515000192595375,0.497179926823504,0.494894248661663,0.45542764213583,0.534411219069276,0.572022148355609,0.536753118479961,0.567083396190496,0.462254387869607,0.598850996246928
-400,cane,12m,OC,0.502612847787619,0.493275873858122,0.642451378106211,0.579997076184946,0.445571725818241,0.481694686750996,0.372571424331535,0.566220515601289,0.49422744510153,0.520256924018399,0.493799411029272,0.494332630894205,0.450146242761914,0.534682864910733,0.564464942780932,0.544581652689748,0.566897992934442,0.466955058066526,0.603530782105206
-390,cane,12m,OC,0.501043484160146,0.499937811463871,0.623770192164247,0.576555184603899,0.445875713369052,0.48386566795535,0.383574747406398,0.576520589414009,0.476873670472618,0.524608700113334,0.492475666685688,0.492979440279062,0.443312750040019,0.532375805460426,0.556698086182892,0.54839627154435,0.563949900179389,0.47135393383551,0.605030023279981
-380,cane,12m,OC,0.49860194666119,0.506219092917579,0.605080582327632,0.570093522671379,0.446421300551015,0.484280678636042,0.39414159853647,0.584847135310183,0.460683797302461,0.525226709059094,0.490330059022695,0.491024060604996,0.435559661514329,0.529672515561387,0.549277467837499,0.547604461391551,0.557594766852103,0.473343288827013,0.604948395952591
-370,cane,12m,OC,0.493707211545287,0.513139709920944,0.586866132285687,0.562243360981472,0.448399284007342,0.481184329842491,0.404273454720122,0.591318286051477,0.447821430488251,0.52443877664929,0.489825600542568,0.488786398844071,0.429454679169873,0.524515322588063,0.542358891563729,0.542551380368224,0.55100518319978,0.474056433503237,0.601225128948364
-360,cane,12m,OC,0.488534681217613,0.520294019903995,0.566416023436923,0.552631466732156,0.452017349887891,0.476943155926558,0.416249097558067,0.597233274284568,0.440160593961533,0.524658527760099,0.493217171197271,0.487306545903409,0.425479514560902,0.51663673844205,0.53684436671327,0.535001020755585,0.546389168721646,0.476344587345061,0.593906966060155
-350,cane,12m,OC,0.485438692847887,0.527245240889239,0.542189406084051,0.542051254883806,0.457224863170717,0.474176251955039,0.431329328841222,0.602991266128235,0.435297560005169,0.524605688073009,0.500211251543188,0.486215518980929,0.426067330625384,0.507638321786376,0.530925973927364,0.526998056749864,0.544669952050448,0.482176059977606,0.584797242653158
-340,cane,12m,OC,0.483811252990726,0.533181598898312,0.515219378435654,0.533313559466747,0.46110464730826,0.476281913078632,0.447570066952153,0.606060371581348,0.428965110896696,0.521593035757627,0.509176668691159,0.483972620777381,0.430376565161024,0.497804360239892,0.524826778955261,0.522650411528457,0.545600179601972,0.488986770218658,0.575347771101676
-330,cane,12m,OC,0.482761118038311,0.537830624337739,0.487599701698857,0.5282385048978,0.462143192562545,0.481793313645781,0.463174738893824,0.604957927753853,0.421577465961822,0.516772574438381,0.518080386436605,0.48139072287104,0.437246369931062,0.488165024808342,0.519403438001755,0.521519231095752,0.550046158641555,0.494832073932431,0.566518211272069
-320,cane,12m,OC,0.483008896151226,0.539512545858171,0.459692041221317,0.528557992903168,0.460168327183416,0.48973441198847,0.481428337500742,0.601124151722665,0.412020286643077,0.510901511222479,0.523807237144346,0.477990844095172,0.444451224003361,0.479804493124093,0.516280305782957,0.524011721453728,0.558774406902663,0.498811952595476,0.557222324955862
-310,cane,12m,OC,0.485365285676777,0.535659570664523,0.431825900492188,0.533193148596985,0.455060211703506,0.500395702674606,0.500649415938756,0.593923514169754,0.403141764530058,0.503605566802819,0.531671237997216,0.474504757960675,0.451782244150711,0.473479332320728,0.514895918763528,0.528190726421668,0.571574744338826,0.500888793530146,0.545439809451841
-300,cane,12m,OC,0.491465654712622,0.531043236129489,0.404870323008585,0.539013285470962,0.44957478740345,0.51340586466213,0.518354981107045,0.585628432933083,0.397508880990409,0.493760566451136,0.541141342444868,0.470658750226194,0.459595693308699,0.469501214933833,0.51662074219581,0.532649123944071,0.583607541780112,0.499397921566093,0.532243924840222
-290,cane,12m,OC,0.499280534688785,0.524515370913271,0.381585869106648,0.542084638758466,0.446928456175045,0.522856344487635,0.533712731595566,0.577932174945437,0.398261753248685,0.481600462242064,0.546274285706684,0.467140591826009,0.467658665613921,0.469526958118639,0.519303168246074,0.539419549949049,0.594043293679257,0.495154357722921,0.520116284502346
-280,cane,12m,OC,0.506649333285595,0.516869526272581,0.365393244163415,0.539110475645699,0.448749288787002,0.525338301300606,0.547812332042787,0.572450653616508,0.403370542438425,0.469473074715416,0.542596683752573,0.463624645334043,0.473753937132849,0.473296437569527,0.523260560968663,0.547810076613663,0.599964646502351,0.489645892595096,0.511613216477606
-270,cane,12m,OC,0.513405919254826,0.508494004714967,0.358176564024858,0.528989166280742,0.45450158593425,0.521858962131329,0.559698543148237,0.567604382130776,0.407059287820925,0.459226408101565,0.53280706170731,0.462131629252291,0.476647004809391,0.47810138019145,0.527293303775744,0.557009027873086,0.601655414981526,0.484037442438474,0.506345917718937
-260,cane,12m,OC,0.517619634664846,0.500658886699746,0.35685015646353,0.515806872059058,0.462637687757633,0.5153981975559,0.566674247021455,0.561983630849852,0.409294755861315,0.451861181155283,0.521240005291018,0.464361302634501,0.477476679380199,0.481121593370811,0.529774238022583,0.56286322391104,0.600385134710488,0.479831447185673,0.503234578103912
-250,cane,12m,OC,0.519873810088178,0.49409622839182,0.357382114368822,0.503685317223938,0.471958526997902,0.509034410405044,0.573007285597646,0.557753719506757,0.410024015202725,0.447289998853969,0.508104390309917,0.468771001791927,0.477289732853264,0.483197229508263,0.527663159223494,0.562969744012452,0.596073870946532,0.477089599163846,0.498977082148985
-240,cane,12m,OC,0.520792921900069,0.489602892576313,0.358444285910792,0.496618121115495,0.480015784247822,0.501526169022277,0.578644128469838,0.555473255014385,0.413109399754658,0.446024867078003,0.493224125514115,0.47320103038704,0.474771128773861,0.483993603245742,0.521990696078721,0.558284432508053,0.589450083926531,0.47417238641291,0.492632641379252
-230,cane,12m,OC,0.519703925176793,0.48601761777911,0.36530554784375,0.496520975724152,0.487018379865374,0.494078099314019,0.580628542702259,0.552591792567604,0.418413870809198,0.448724089225597,0.480360131367192,0.478282809255565,0.472033272995024,0.484193105340008,0.513871337578979,0.551273034381929,0.581847340562054,0.470415272156304,0.486497420265461
-220,cane,12m,OC,0.513584906873268,0.48448925282087,0.376519869358462,0.500451401235861,0.494612325244185,0.489094817314187,0.579355696156178,0.548920923080925,0.424842979706,0.450249856653087,0.469353120828988,0.483008819724547,0.469270514887988,0.485165849580434,0.50544243299581,0.54326150019338,0.57372328807132,0.466458936845543,0.482106178674986
-210,cane,12m,OC,0.503808243032637,0.483584304489685,0.389310769749489,0.507599092103254,0.503288642072994,0.487268637240782,0.577058880857923,0.544706159830693,0.434076448883915,0.450104432845616,0.462814260993783,0.487706819596309,0.466801586870779,0.486752065714738,0.494653456689304,0.533344488195805,0.562276832321341,0.461484109975085,0.479991267583753
-200,cane,12m,OC,0.495217583358671,0.484603317684823,0.400701737522159,0.514979674336077,0.509152152574731,0.48725584723024,0.574034019736898,0.538550143192672,0.445151601958896,0.449217003135694,0.460152903328595,0.490684674911395,0.46240602212068,0.489352888412936,0.482871829583103,0.518843262915684,0.548216424919873,0.453996765208705,0.478971157807772
-190,cane,12m,OC,0.489236853426591,0.482133817028864,0.410330585459036,0.521422235713155,0.510357899977079,0.487543454948663,0.570021588084883,0.532348509140662,0.454926669152755,0.449953697813299,0.454013178124355,0.489822902398299,0.457216252434778,0.491782402840716,0.47286272145462,0.50175660843961,0.534101661038842,0.44762607230653,0.478704641055843
-180,cane,12m,OC,0.485306555955191,0.477115628822756,0.422562538111595,0.526564150625519,0.50847851741332,0.48955128142699,0.56620862483891,0.527813697692257,0.458437322229038,0.453091736232802,0.444188917974229,0.486532627795219,0.453293128470941,0.491375475636105,0.46642637405349,0.48576197954179,0.519293047266879,0.444047676833077,0.480941317756742
-170,cane,12m,OC,0.483179932672026,0.472755487988165,0.437605055492867,0.5296377007031,0.503605298571769,0.492261847200631,0.563647476507265,0.524921946826481,0.456813945866107,0.45823746423296,0.437255478905473,0.483133284410933,0.448716880027674,0.48942319780518,0.464145697584738,0.472324855236085,0.502235187045771,0.442192293633559,0.483990377053407
-160,cane,12m,OC,0.481892440884086,0.470267287281194,0.453549312536011,0.529769380421014,0.49767319389323,0.494658733403495,0.561844888426581,0.521497244130214,0.455666214057933,0.46402788722082,0.436225691807229,0.480241259776539,0.443329390449197,0.4902865299528,0.464024314321548,0.463121388055284,0.485720098034118,0.44059760948604,0.484578506475558
-150,cane,12m,OC,0.479479559545048,0.465634750119245,0.470696507906639,0.527252000001888,0.492250557671767,0.499103329565066,0.562209589895641,0.517181986452571,0.458046436571554,0.467821064196306,0.441635164506536,0.477530196301605,0.441149103253712,0.492296448945972,0.466190244043629,0.455783254225821,0.472076813335581,0.439207291285744,0.486198406008293
-140,cane,12m,OC,0.477009085885188,0.455638270870783,0.489747318528501,0.527333684003986,0.488404343675253,0.507207622187161,0.562543521098028,0.512628998814156,0.463405746942528,0.466162597509057,0.45021326319371,0.475629598232026,0.443246788185814,0.496952950668646,0.470359043304294,0.449609427430901,0.460944848602845,0.438438913141039,0.490331197622274
-130,cane,12m,OC,0.474884165587295,0.439957956469782,0.50850197143493,0.531706343620333,0.484809726541164,0.51740824906036,0.557259649968476,0.507492909226161,0.470051008093027,0.457026702299987,0.460528428753837,0.474551316841925,0.4476542670621,0.505122859257194,0.474899227095204,0.442861272964251,0.456014654265847,0.439772413177412,0.49378126912467
-120,cane,12m,OC,0.47488806673546,0.424707701956718,0.524661491606946,0.538598315958594,0.479972452652885,0.523559498812541,0.543027849774294,0.504657029844522,0.477536755753951,0.446016838890524,0.469984675395923,0.471254402854916,0.448547389944792,0.517027954575892,0.479136674319553,0.437524448998695,0.460393293817245,0.443393828808697,0.493957773337472
-110,cane,12m,OC,0.476034260626244,0.414767391760623,0.538867747325901,0.544586330863027,0.472465360846078,0.526744227193712,0.523742738653066,0.504840524020661,0.484751489519791,0.433697704980881,0.476421856583744,0.463786001909092,0.44690589809144,0.530888528822023,0.481764329740739,0.430401591207102,0.467085072949926,0.448789547582464,0.494023349015816
-100,cane,12m,OC,0.478088368677467,0.409333889214604,0.546618529972631,0.548341297093831,0.463686496386104,0.530246439034104,0.508441223681834,0.508598782052699,0.489681797648166,0.422613815504092,0.476219634823685,0.455331278280322,0.446461071983344,0.54470255170204,0.483796094341691,0.423829548771225,0.475523563131909,0.454462708026216,0.497291191164848
-90,cane,12m,OC,0.481016183175097,0.406129987755161,0.544780174804758,0.549026532250921,0.455800475351002,0.535017005340491,0.495960899901839,0.515294212544063,0.492481785072586,0.417172560201511,0.467748064776745,0.447199741367804,0.445797384827853,0.557409646776662,0.487203085291298,0.421164520089617,0.483454213959425,0.460493303084107,0.502504303866685
-80,cane,12m,OC,0.484117969119444,0.404473231088232,0.538075410991685,0.547180434332959,0.450291062047961,0.536814741230793,0.487335696055121,0.523503572223875,0.494403170435509,0.41634985213164,0.453870739284652,0.439451766847791,0.444229488167478,0.566790860482774,0.491869659691279,0.420918378095602,0.490270153199224,0.466633458696203,0.508083718754791
-70,cane,12m,OC,0.485148150742932,0.404287998420535,0.529474662714312,0.544069372329602,0.445954848213831,0.536671081116474,0.482828918164098,0.530741158169776,0.496358259207067,0.41490693617631,0.43814829686356,0.433911835094928,0.442706543891759,0.57384934808672,0.496647437648349,0.42222914247642,0.495598084000008,0.471092486525653,0.514254531621288
-60,cane,12m,OC,0.484856093403483,0.406634800638365,0.521345677121685,0.543305035334954,0.440516962338493,0.535585526838826,0.481246084970166,0.53728877008159,0.499666470452277,0.411837070580879,0.418132299314658,0.430649095174247,0.442211456512589,0.578156195059945,0.501635630702941,0.422442611297021,0.499173607674979,0.472151467658455,0.520080039769377
-50,cane,12m,OC,0.483581967603241,0.409933142568909,0.515795097823968,0.544327788673238,0.43390508110023,0.532136947522304,0.483572166986704,0.53989945366967,0.503550881588837,0.406511105952271,0.395444813015577,0.429398197909251,0.443216829528139,0.577912788346647,0.506132485733919,0.418196451011824,0.501304522394004,0.471362606181656,0.524310025735691
-40,cane,12m,OC,0.481961499165439,0.410022759880617,0.510390728134765,0.546831440206631,0.426675980515804,0.523319388814904,0.487431712147498,0.536666863961619,0.506622927871182,0.401425776408712,0.373729977024386,0.428356247818795,0.446199768447289,0.573284341748365,0.512863410221722,0.414297214681706,0.50196974189072,0.471441511540448,0.525050201045987
-30,cane,12m,OC,0.483426137962709,0.40445251135497,0.504718393656656,0.548717470421593,0.421606328682145,0.508882777866882,0.488126846977091,0.530523070940174,0.50527308766267,0.400059471052766,0.359277554365199,0.427126130665483,0.45141052304813,0.564737362982071,0.520225337526897,0.413184140068539,0.501217925762592,0.472640049322245,0.520324543693333
-20,cane,12m,OC,0.489394276861045,0.398102221773251,0.496397981488499,0.55046408988466,0.422104160482853,0.492006931773703,0.48410206897342,0.525798920036423,0.501841002606111,0.401327772337103,0.353222166568741,0.425483355737474,0.457586776391476,0.552707606164948,0.527337364517855,0.418225973501408,0.499193912573302,0.472670854982839,0.511986638554114
-10,cane,12m,OC,0.498179036896414,0.394865859687892,0.486152617641955,0.550579586522209,0.424619087031852,0.476580707842813,0.474779528646211,0.522404088485497,0.501063099464566,0.406317272760656,0.353302536196389,0.424278470131956,0.467743520468381,0.538436388646872,0.532915370561705,0.425430886300049,0.495265361856399,0.472663212799059,0.502004522448869
0,cane,12m,OC,0.506959363940814,0.397335384259463,0.47343864041819,0.547574561768497,0.426735190494752,0.464602232481358,0.461609968230622,0.521744761829393,0.507151997845313,0.413399609745899,0.360485445164825,0.424259043361365,0.481871203977091,0.521857465643824,0.534128949703688,0.434813745971136,0.488905072948795,0.472554706528092,0.492460422774829
10,cane,12m,OC,0.512103156093302,0.404318700936196,0.463391684509389,0.540572117050996,0.428253634357778,0.456388029204234,0.44898500525088,0.523024964229109,0.516805668375183,0.419843314991295,0.371774686590296,0.427393440657816,0.496226711355351,0.505560794344421,0.531151296970664,0.445790337445267,0.482141357482603,0.471243979929457,0.48897435266624
20,cane,12m,OC,0.511160988104457,0.413494611610575,0.455190837344837,0.533832819444648,0.428476086479603,0.452495385893104,0.438754709984195,0.527402394585219,0.524794664038051,0.424215197066296,0.38337740832554,0.432732346298834,0.51166567761941,0.492115925296644,0.525673049161683,0.453251499732312,0.479541286914106,0.469631004313143,0.490415673091734
30,cane,12m,OC,0.506005643308609,0.425705833093321,0.448975124548735,0.527028014275776,0.428900879397812,0.452071749411963,0.431022321833105,0.533110938644499,0.527464538618647,0.427680914184548,0.395233120119873,0.4400913013853,0.526485572150943,0.481987221912942,0.520290035289445,0.45406660069564,0.480451948256116,0.466682956672157,0.490548635881413
40,cane,12m,OC,0.498640778591206,0.440947770530774,0.445132690499144,0.518919100778028,0.427340384315784,0.453730308474896,0.426351310659714,0.535163189054786,0.523600611872381,0.430476040393809,0.405120621308637,0.448905702252132,0.537509137968436,0.472545121550582,0.517681875708099,0.454731944351804,0.483605491603259,0.462135031242819,0.487273420290581
50,cane,12m,OC,0.489850458442201,0.456836933257012,0.442215256042618,0.511048071059535,0.421371871375184,0.457426336275486,0.422491270732126,0.532921634941189,0.515413764425984,0.434416570656392,0.41306845930657,0.458731186647144,0.543424488820653,0.462918689885186,0.520312049447592,0.454809902705593,0.489053225500407,0.457797545774986,0.482193321897022
60,cane,12m,OC,0.481319381773457,0.470717321647005,0.437735361572341,0.503960366791199,0.414182931388261,0.461330881229413,0.417728738814441,0.528215386629952,0.508097756563847,0.442186630356423,0.42286049934182,0.467856024607172,0.545412069810693,0.455129184207,0.525655343343108,0.454501677340583,0.495766109013403,0.452565745229801,0.476173131646073
70,cane,12m,OC,0.475675837777267,0.482366151044863,0.431449448928135,0.501173171475401,0.407495097214001,0.463019639249307,0.412014063214785,0.522945313935068,0.503970292390612,0.452269681365356,0.432202244158755,0.475162462043429,0.54520406870374,0.450762152358687,0.530763453056402,0.455866910761446,0.5017079640238,0.446506707897118,0.468872286861518
80,cane,12m,OC,0.473111342289782,0.490327468606064,0.426631110000912,0.503277211976612,0.403191989240567,0.461088250525454,0.411365980522476,0.520358863271771,0.501943093916411,0.462043121582945,0.442621452944483,0.481455381714551,0.538757176678869,0.448975570051639,0.533223282294477,0.457330218034554,0.505398673945966,0.439989511340179,0.462572872775721
90,cane,12m,OC,0.4700155677977,0.496949008149377,0.425339788770056,0.507289916724681,0.402553971831801,0.458530449883033,0.41678075588807,0.519186388481929,0.500843334609202,0.469901986557298,0.45514775521809,0.485582828335596,0.527342876311236,0.450660417656725,0.533356074559565,0.458713621181389,0.504999578197226,0.433480491684917,0.458838928260697
100,cane,12m,OC,0.466817955348501,0.502495616459898,0.427047396327015,0.509237892602637,0.407978114338835,0.457476275302414,0.426676213183796,0.517446120320048,0.501054527610233,0.474613711415916,0.467145006726955,0.486080902909538,0.515193823797792,0.455987995736561,0.532092258075866,0.461976882414983,0.50206387754619,0.426635967935341,0.458388402332879
110,cane,12m,OC,0.465003911424059,0.506006512911919,0.429830322463482,0.505189081236446,0.417300011062431,0.456721278435648,0.440728012815857,0.515338255028517,0.50637101268605,0.477025793325944,0.479791353180855,0.483821876409165,0.506536395920804,0.464504345582479,0.530430975670135,0.464896052246789,0.499728717297471,0.419085645697166,0.462698407614033
120,cane,12m,OC,0.463464151046614,0.508884777124483,0.431616435697997,0.499013578926581,0.427057677127994,0.454636083516783,0.458170468492056,0.513768195749396,0.513869220007958,0.476663511556372,0.491387536408568,0.480051991336913,0.504616904448548,0.475416263770642,0.528835112140802,0.46884378880944,0.499217952640017,0.411828671105763,0.470062932441166
130,cane,12m,OC,0.461400445527469,0.512557936602726,0.434001126328645,0.493020911615893,0.435852394317164,0.454034543712292,0.475972676765755,0.511034063514447,0.517770667686128,0.47465812207626,0.495655026066123,0.477960419054024,0.506834312912978,0.485358659693232,0.528093664959706,0.473003602973797,0.500062451938296,0.406189307213212,0.477231887978651
140,cane,12m,OC,0.45822038513705,0.516972989278888,0.437117873277391,0.490222455454977,0.444571321898437,0.457538553976875,0.494874429206936,0.508259249435236,0.520031770979259,0.47196333508393,0.49078075368677,0.479981649122613,0.511331433341891,0.493296302274767,0.528910591085191,0.475464352894905,0.498918143246136,0.403104797293096,0.483193104473458
150,cane,12m,OC,0.454305012574203,0.523191292354552,0.439326037955898,0.490040840765328,0.453367415457363,0.465498772001115,0.509363594083299,0.503986740157826,0.520685214000391,0.468986699717262,0.481367099784341,0.485244493521609,0.519857614246421,0.49968168548975,0.531471520947046,0.474485318546592,0.497712010314792,0.40174222982778,0.489848379385403
160,cane,12m,OC,0.45246223708401,0.529353733562689,0.441392870342594,0.488307746101093,0.463092030541058,0.476967244127156,0.518126375729527,0.499334390663066,0.518116734273506,0.467483147210512,0.471094436065422,0.491010954982014,0.529938132154563,0.504660798203328,0.533551751809932,0.469174594274321,0.49825237665958,0.403037654175814,0.496069802005997
170,cane,12m,OC,0.45427413946699,0.530303657002332,0.446258023527232,0.48450589932524,0.474332006388792,0.489049097562747,0.52233682784761,0.496955896345402,0.509922245434178,0.468670125751579,0.460002689897681,0.496954544835936,0.537681689941072,0.506838025475618,0.535229453243217,0.454005338073179,0.500004193172626,0.407592474034252,0.503200190413025
180,cane,12m,OC,0.459359312567202,0.525575518839389,0.452167094195326,0.478592824630906,0.486653652485181,0.498008543232741,0.522725415429597,0.495804961499159,0.496718485795536,0.474487398739031,0.453040071211581,0.50162864493399,0.543466027399222,0.507671452740077,0.536683405665046,0.428364109711317,0.502589621415183,0.413831804181747,0.510553379597953
190,cane,12m,OC,0.465547169503594,0.518838386661082,0.455020649302293,0.472483479650882,0.499614718652844,0.503699953630212,0.522035270347255,0.495886460808452,0.479641805222683,0.483228847767658,0.445942253775285,0.50346589996392,0.548926848304624,0.506645158755121,0.536901214076359,0.401766026420828,0.508054824906355,0.421739214458696,0.518107366140069
200,cane,12m,OC,0.472397334116801,0.511731066759303,0.451876985061642,0.466114449558552,0.511924724401878,0.507237999124868,0.521907983315449,0.49720969016701,0.460973945466702,0.49609699938934,0.434527733890678,0.500615906193505,0.554232455498003,0.504983537578685,0.537392308804871,0.381955881569433,0.518059470977556,0.432127131305831,0.525780775691281
210,cane,12m,OC,0.479550816171354,0.503444315007861,0.441107006029584,0.457975582014173,0.519349043637413,0.508757808984528,0.519403201525403,0.498209329294553,0.443908103287475,0.510757330520252,0.41870892439913,0.494335683260113,0.559422846664751,0.503552075477449,0.53705890370579,0.373508534119892,0.528308079568277,0.444078833018945,0.53147592879014
220,cane,12m,OC,0.48633062344284,0.494415096863441,0.426520851236658,0.448918276194897,0.521572265067533,0.511972835208446,0.511839017239577,0.49821786960426,0.429025536003306,0.521562572343557,0.403910142877331,0.48656836628079,0.564851674898612,0.503973468803762,0.536378786709674,0.372831222473192,0.535764247330414,0.456318544851041,0.53614631178679
230,cane,12m,OC,0.490377565528807,0.483646297943037,0.413020615507327,0.43968926383541,0.51836194666976,0.515890360170534,0.500018864145168,0.498497936268132,0.414049212317517,0.529800804910171,0.396564137940457,0.481667356433665,0.570510564308277,0.507171107491692,0.53630111701872,0.371571005904819,0.539909392481565,0.467585219921693,0.542713119537189
240,cane,12m,OC,0.491809369507174,0.473434629279156,0.403640534414995,0.429969771574601,0.512542256615713,0.519292403117496,0.482588264934342,0.500204851052183,0.399723630291547,0.535889356809343,0.393795363882249,0.480322829746422,0.573084911817626,0.51186900684689,0.536473219249656,0.373383642584348,0.539360825075656,0.4760769505855,0.547673724065136
250,cane,12m,OC,0.492540795687902,0.466984183136928,0.395815792202732,0.422443559445078,0.50785921306207,0.521068324399033,0.4626228616378,0.501867763692663,0.388273665742528,0.542000025223606,0.391534571161691,0.481989034587383,0.571730780624768,0.516903452031073,0.535288185793502,0.379788772080023,0.537625710488356,0.482464986382244,0.551952548360768
260,cane,12m,OC,0.492731737684128,0.463421181703378,0.391558581478309,0.417417838695914,0.504535063180332,0.521512151211293,0.446135077932027,0.503215003418609,0.377402612572118,0.545712928095069,0.390772199034917,0.483096655052762,0.567755809019575,0.52011865935349,0.533472197014509,0.38940089685223,0.53631047786003,0.486495166455624,0.556360375844065
270,cane,12m,OC,0.492016958620678,0.463354749557971,0.390999358054213,0.413581497750689,0.501756784889776,0.521349227691814,0.432889506368572,0.504602776753892,0.366824668369537,0.548477761536006,0.393452524415854,0.481591701325977,0.564087804665916,0.519229487870106,0.53123007209259,0.398221065065996,0.533245010901674,0.489107821714005,0.559737458280792
280,cane,12m,OC,0.488044892470602,0.46741689597416,0.395503356233422,0.411510729745982,0.498497950830026,0.518484638293482,0.419507198269182,0.504755841080542,0.356358496139064,0.549471739840608,0.398298667214047,0.478903353600812,0.562622785599278,0.513514325618322,0.528557944707916,0.401820692265049,0.525182546756938,0.490001528955561,0.560687317563986
290,cane,12m,OC,0.479418293535012,0.475844904135554,0.407043771061683,0.411767803137247,0.494124823710602,0.513803710369444,0.407821531394897,0.5034365282913,0.348035969798708,0.54973934914421,0.402770039291985,0.477658517012697,0.563300685597153,0.504399581237296,0.523909430018569,0.398697188179805,0.514347572447174,0.489017454947699,0.560589468056242
300,cane,12m,OC,0.469291909735894,0.487670952032901,0.423074159959093,0.417021436553283,0.48797655459314,0.508275811707634,0.400534348483695,0.500932739372537,0.345135279243897,0.549879216268222,0.410132220260596,0.477567832496983,0.563586919827193,0.496177848656725,0.516561307110686,0.392391524539458,0.502999306272064,0.489328427084571,0.556694719314642
310,cane,12m,OC,0.459183337872272,0.49797455613497,0.441465851628044,0.426818111366152,0.481472770302783,0.503276172659288,0.402445769689692,0.498900385573544,0.346236249320562,0.549505644376106,0.419807941297735,0.477681770703902,0.563853350565431,0.489061333663177,0.508428531885444,0.389738369369551,0.491869856098469,0.490664948354134,0.546794555781729
320,cane,12m,OC,0.449649613846184,0.5066871100301,0.460448861727752,0.439478595364292,0.474882035920626,0.501404963872861,0.411495573625618,0.498539528677538,0.347517043946485,0.545872068984149,0.428277418947835,0.478150608999266,0.564765554313921,0.481111008226169,0.502794791128786,0.393058337696597,0.48495113875386,0.49211043488361,0.533217080731297
330,cane,12m,OC,0.441490636061684,0.515632233573067,0.474255687494273,0.452286870086679,0.471992911790894,0.50015184569399,0.419047954019227,0.503433759420275,0.349394631704012,0.539115997245228,0.435401280673088,0.478468426255814,0.563791343620712,0.472914474740599,0.498891619421697,0.404100233851284,0.482830817958935,0.491778250467104,0.519903563399408
340,cane,12m,OC,0.435309078726176,0.524095112492939,0.479468475039842,0.463002056392954,0.47574805971191,0.499899405124455,0.42439147796425,0.514402468733111,0.353595408712487,0.528830066784558,0.443735743411703,0.478390881244914,0.563018083318536,0.466919558396757,0.497302549927678,0.418530591630337,0.485879984247016,0.488736091904545,0.510069663895009
350,cane,12m,OC,0.430929716221486,0.533340323998093,0.478727317562402,0.472945866254625,0.484032159736337,0.498699823963096,0.428195165922252,0.528630686306148,0.361012172520873,0.518089666040306,0.454531700126057,0.476798554636803,0.562857175151222,0.462246586903441,0.499430881036366,0.432983336547194,0.490823418621914,0.484697126432713,0.501255084931374
360,cane,12m,OC,0.428953161337009,0.542854555437288,0.474832816486954,0.481289377652916,0.4953065110591,0.492823662091803,0.434368011645146,0.542711824085037,0.370180863138603,0.509707500974879,0.463727093103083,0.473190657510683,0.558632434188282,0.459766488350619,0.503651716819455,0.444884050247196,0.495773211787861,0.482502299792635,0.491425464351592
370,cane,12m,OC,0.430616451572842,0.552328900941242,0.464176112841268,0.486400574949735,0.508627451365084,0.48233177355958,0.441655517156641,0.55415259366006,0.372648088287614,0.503181012156312,0.47427372572294,0.470909399152193,0.551390507089219,0.461012511861231,0.506715416400991,0.452249736315206,0.502716764003135,0.481630819827375,0.483449208285006
380,cane,12m,OC,0.434159053659674,0.560073243432681,0.453172992968487,0.486326334675468,0.519411162416889,0.469122058732235,0.450742328986224,0.561852176256648,0.371202006738481,0.499960465358726,0.489282789029666,0.471690326064258,0.542763806197078,0.465910209647103,0.507429793486706,0.453796166431429,0.512227523208014,0.480220957037481,0.47741688381859
390,cane,12m,OC,0.438181045880919,0.565435290771804,0.441766458507665,0.481851220995063,0.527976178875277,0.458740079679873,0.45974527826891,0.566940544280869,0.36997280955909,0.497129963164396,0.505210189760768,0.474946912363472,0.534887284564806,0.472481734002287,0.508061716435378,0.450703800123292,0.520799361217992,0.480455419681994,0.470760504370515
400,cane,12m,OC,0.443224674842944,0.567929059118852,0.427608144903634,0.478402688723924,0.535876157204671,0.45323237138132,0.466642111586064,0.569928108136752,0.374153816843036,0.497220264385136,0.515970791212819,0.481995101896389,0.529367447557465,0.478799999142405,0.511513179379595,0.445884417771625,0.523899658234013,0.482552206358453,0.464005874447117
410,cane,12m,OC,0.44939090059236,0.567502548871326,0.415095057307948,0.478638140417664,0.543522662664943,0.45364277082846,0.471021287757147,0.568235602113482,0.383259116902572,0.500673896953937,0.519721184353686,0.491259864019413,0.527621593892202,0.484343348394333,0.51576363466119,0.44021362499143,0.525268279631948,0.485727348419945,0.458686896433976
420,cane,12m,OC,0.455497462458314,0.565204503318932,0.405231780522087,0.478469270413333,0.54781094665454,0.458712918227473,0.476564117910998,0.562597156430834,0.393269142564929,0.505552622974648,0.522191128866816,0.497836590839155,0.524846679564783,0.489013870302827,0.51783529820243,0.433353300832288,0.524473612197199,0.49075957401027,0.456969499211864
430,cane,12m,OC,0.462191802126411,0.56392189210692,0.398067115254752,0.477294621824327,0.549694515112376,0.468465960170575,0.481770416587036,0.554481775281519,0.406632309669544,0.508654287760724,0.524127537455134,0.501743397229003,0.520343048181522,0.49320959157338,0.517675717860004,0.426869734999531,0.520032078009898,0.496568835498516,0.458890165208638
440,cane,12m,OC,0.470764076087076,0.565522869038999,0.395903297834239,0.477332212380666,0.549160765945758,0.480279574055286,0.487211481245224,0.543947517261565,0.419965284564821,0.511314657771409,0.522379816470953,0.504039263872047,0.51115671010505,0.496634277361735,0.516589918618392,0.420551657565164,0.513963047263958,0.502877253890706,0.462728815925782
450,cane,12m,OC,0.482285117718077,0.568438218354994,0.398421083839501,0.478390094726841,0.546809704275306,0.492202969531146,0.488281990447517,0.534953278472152,0.430871254817742,0.51281864675839,0.515758086213536,0.505829043228381,0.496370230493591,0.498826683828241,0.515589261375357,0.419379767273735,0.508027321468809,0.507434568255468,0.466621691161941
460,cane,12m,OC,0.492864588790365,0.571440699176701,0.407090682967208,0.481463566098291,0.543145040212468,0.503955021171321,0.486644256950327,0.529027954137133,0.43770244403406,0.512092174986932,0.509044548962635,0.507857821222975,0.477991782025814,0.49976553131099,0.515181363646459,0.426234411302055,0.503418179129697,0.509492252060568,0.470655967152023
470,cane,12m,OC,0.500830666575793,0.57603443425106,0.419957783990843,0.486911088656684,0.538054816646776,0.514222014031255,0.484061211864244,0.52544527220433,0.437736722294005,0.511171834017328,0.5051783201839,0.510898055500513,0.458212914264912,0.499488876061854,0.514740565390108,0.434856927509011,0.49836186095522,0.510579003587404,0.476703410133985
480,cane,12m,OC,0.506300784353132,0.581439631417297,0.438891727628073,0.49256891701887,0.530215645852237,0.523195603303456,0.483975766098922,0.523075666396947,0.434020289467407,0.511823990936459,0.503451710195587,0.513676050779108,0.442127388703682,0.496294804235772,0.51354766262367,0.439782717633738,0.493359804112818,0.511177712621341,0.484435761288534
490,cane,12m,OC,0.509646257796576,0.586699835056777,0.462174907534881,0.494394646617928,0.518590997218599,0.533111605145729,0.485985736743125,0.519102824462932,0.43032359767268,0.513350248370779,0.499929322797238,0.516507504663369,0.432732417360505,0.490390565192195,0.510411372395466,0.439700113130666,0.486596931640106,0.511002865133228,0.49350470929106
500,cane,12m,OC,0.512593332722422,0.590149649138823,0.484226190500105,0.49481726980061,0.505590318430893,0.546025670162923,0.489307960159524,0.513440936831588,0.426516500554881,0.515450401964399,0.492971500385095,0.519223637389905,0.427770346140567,0.483342356594918,0.505973747151472,0.439613609107303,0.476247308683359,0.509373272241601,0.502306525963363
510,cane,12m,OC,0.514338275469195,0.591403844226965,0.502092421357267,0.493359957572557,0.492308961839029,0.563190074470033,0.491820948798021,0.508428221709433,0.423418212843225,0.518302568309185,0.483607675057141,0.520178223556709,0.424515092701262,0.475364075991029,0.502563553346622,0.441118825419931,0.466974180706226,0.50922037634193,0.512050059746569
520,cane,12m,OC,0.511429421238906,0.588207089960016,0.516589234693648,0.490416735001852,0.481259408776787,0.581975722922334,0.494990146365362,0.503339735198197,0.420305608276458,0.522774038560567,0.475362740052803,0.519393204407768,0.422921264638093,0.467164829017483,0.498833060476721,0.444786863317131,0.461524975148681,0.514748383984705,0.522515905768463
530,cane,12m,OC,0.503342549118009,0.581139723740163,0.52856285267004,0.485039074873552,0.475733855413656,0.59760304479504,0.499232532249404,0.497577170631086,0.419348792795354,0.532253492652492,0.471748498183353,0.517228374138356,0.425047717558018,0.45968729348373,0.49507251028983,0.451475218493275,0.461047161766264,0.523690486128794,0.532081406785642
540,cane,12m,OC,0.491083499333036,0.571989499382122,0.53925384185085,0.47563832749287,0.473866011177431,0.605845410496202,0.501817345507206,0.492862347230759,0.421119992197509,0.545138423708941,0.472091389094556,0.515794487067581,0.431516056764734,0.453110847175502,0.493531163186949,0.462696033582836,0.464113320406077,0.534148327824327,0.541269924318398
550,cane,12m,OC,0.476690659981203,0.56015062747826,0.548356010731363,0.464408353396143,0.472420121972246,0.605030820935951,0.498231307382852,0.491613297224104,0.424333446771386,0.560185302970519,0.473020402766199,0.51470378090169,0.44257825714612,0.448344332173804,0.493591615243182,0.476867301799142,0.470363073253069,0.54463307894454,0.551902959747297
560,cane,12m,OC,0.464255448440717,0.546563896931904,0.555945692232842,0.452638690062665,0.469174808343973,0.597946489504309,0.487238167529361,0.491413041926821,0.429718176663018,0.574093774666812,0.474905331857533,0.513106057216877,0.456494827145505,0.445382759803889,0.495276139923418,0.490119134872222,0.478094339202908,0.553905671178426,0.559627836084417
570,cane,12m,OC,0.454702594886992,0.533618082973632,0.56215209436834,0.442457716187733,0.466088957841138,0.5887454989842,0.471540150742454,0.493538652546576,0.435401970261932,0.582356600335487,0.481344583643138,0.50902536539353,0.472057207868578,0.442803676092755,0.497934343885195,0.497958365416706,0.487119353264239,0.563072609696021,0.559937464850631
580,cane,12m,OC,0.446841209010004,0.522677203207528,0.565405251076843,0.435203522708347,0.464021088154183,0.578818929400567,0.451926665987903,0.496006039407199,0.438366463332312,0.586250482605214,0.494716340799635,0.502271844438017,0.489276991968815,0.443258525162043,0.500724447558252,0.502519885949094,0.495905448975641,0.571652245594462,0.558718272058073
590,cane,12m,OC,0.439671213878837,0.513660616768472,0.56383483306971,0.429310287099608,0.46007696761438,0.566093690616862,0.430611338878753,0.499955615379687,0.438545906014419,0.58705132712097,0.510812460199221,0.493663388847048,0.507385120527204,0.44694466404728,0.501752743454652,0.507077672117561,0.501936597948877,0.577614162912674,0.555343361663718
600,cane,12m,OC,0.431800720245563,0.508234971792669,0.559072638212601,0.426767929492951,0.458443934385533,0.550257979178049,0.41336458807023,0.502082675257485,0.43330630911972,0.585940871051602,0.524448546791392,0.483539391413446,0.52556810070498,0.453526876453266,0.501387927446112,0.510379722738897,0.504928383936568,0.581596023743147,0.551018445438555
610,cane,12m,OC,0.424438358273878,0.508361982684051,0.549566137791952,0.427343369384256,0.45954223963199,0.53425254914826,0.403127788979195,0.500856664559618,0.423629478914174,0.584171563555411,0.533276640262187,0.472707198973686,0.540748879247232,0.462445584847255,0.500348932710728,0.513246812732245,0.503530084090756,0.583046743856984,0.547195758773274
620,cane,12m,OC,0.419755192869563,0.510868606616346,0.540735959849635,0.431466016574151,0.460671378649472,0.520192654553796,0.398137948045397,0.495566482405168,0.41478122601582,0.582157816965392,0.539995317794633,0.464344481492185,0.552137562300975,0.473960529506286,0.49742961269118,0.518394226210066,0.501424684684091,0.581861462718287,0.543905601921989
630,cane,12m,OC,0.418139989527988,0.511858742426151,0.532096982032918,0.43792024486854,0.461514525076284,0.510129359361908,0.397946394169947,0.488423144561326,0.41170076306175,0.579337437991223,0.545210462297378,0.458954684776881,0.558771590508487,0.486008583822727,0.49314173368151,0.52858196531249,0.50044056237789,0.578548686756562,0.538445034252523
640,cane,12m,OC,0.420221621515913,0.509950525221738,0.524260801991366,0.446158170896983,0.462753390829509,0.502699686191379,0.402293386775962,0.480788454810483,0.41162063673527,0.574042312693404,0.546630549295792,0.455583868147344,0.562702804770841,0.496233189671178,0.488421355387076,0.539993840029089,0.501802093784848,0.57431527461573,0.529680743499891
650,cane,12m,OC,0.425250308913861,0.503630223529946,0.511779575246384,0.452313449410684,0.464438699755898,0.497442807591783,0.410629798725444,0.476638189100741,0.411943242676643,0.565676781770283,0.544306019582561,0.453488500574573,0.565510151305039,0.50296908121083,0.48464695856319,0.549498109253681,0.501295022685946,0.571186243469436,0.519015470530212
660,cane,12m,OC,0.428400219807037,0.495120587353234,0.494120783796493,0.452494525166704,0.464660166751198,0.49043717096,0.41989929530613,0.478943103448688,0.413168465652366,0.555217928008612,0.54195813967403,0.453215012066488,0.566212040964199,0.505636227264543,0.483070973703184,0.552916974757374,0.497586145462406,0.571690777912456,0.508373898629714
670,cane,12m,OC,0.428559000407423,0.486139113535039,0.476554576210197,0.44856970641738,0.4633494030632,0.479488499363484,0.428847355786153,0.487024722583623,0.417531397314424,0.546448122602002,0.542930837376956,0.453715445247784,0.562658070040177,0.505427387467006,0.483242926312067,0.548864178757276,0.488525184786269,0.573144293022271,0.502554487989848
680,cane,12m,OC,0.425859006782634,0.480679491535713,0.460666533978681,0.443536441727496,0.460192812863711,0.465449870468454,0.43934128187435,0.497727858646778,0.419853825014811,0.542977682160212,0.542988474155616,0.456379596449818,0.554728429381584,0.50363686005587,0.486052473187281,0.540943268122232,0.477940798523671,0.571296745103879,0.49969767901598
690,cane,12m,OC,0.423433973696593,0.481759636149133,0.44578602142688,0.43822517349678,0.457839625043953,0.449067268021076,0.451698335362507,0.507599341335888,0.420892487303374,0.544007983261107,0.54127803543399,0.462197285245249,0.546333050140334,0.502154813592279,0.491376635474943,0.535260190653315,0.471742397072036,0.567703208289599,0.498832157671392
700,cane,12m,OC,0.422911927060129,0.488695119091326,0.43170472265846,0.436146506523886,0.457867708580552,0.4361089090698,0.463985955119251,0.514504892175804,0.423819044074896,0.549755183645503,0.542083739038049,0.469871693483329,0.542240199267621,0.501498923900472,0.497393228290512,0.532058656319996,0.469688948045297,0.563697903932352,0.498409568692396
710,cane,12m,OC,0.423286633604605,0.495355871760254,0.41922061137024,0.437413145315952,0.457482625729806,0.426933952357929,0.478473298393688,0.517878855582372,0.426111872990223,0.557667692244114,0.538542746943331,0.478616366191568,0.541201812017605,0.501263077915899,0.504325222136343,0.529871818463537,0.466550668432725,0.558946090288938,0.496949907995835
720,cane,12m,OC,0.425066085465495,0.498188294589337,0.409497188904778,0.441716208567313,0.455687163285082,0.419442887314056,0.495861448931669,0.517985806530799,0.427417543738026,0.566717137732104,0.529347782037255,0.486544664166443,0.54318352943116,0.50096477543726,0.510151924611942,0.526084950834394,0.459241029164511,0.554060810400801,0.495859281497229
730,cane,12m,OC,0.42646075696155,0.497149674580608,0.403656772878587,0.448057300622857,0.453355686851521,0.413443054597486,0.5106715212085,0.517974762449784,0.426836161222426,0.573396208117922,0.519151293383683,0.492658388414761,0.548098913162579,0.499978007905351,0.513017917221018,0.52268305090986,0.452708891539291,0.549843417677989,0.495093073734344
740,cane,12m,OC,0.425628431578398,0.495856707992542,0.405525516027575,0.454294461961877,0.449003664786917,0.415431710042048,0.52671973355448,0.520509590028617,0.421469179793442,0.575976906888901,0.505818612129217,0.496829007385477,0.556026987041205,0.49799203960183,0.512197912790052,0.520510203763566,0.44694487984131,0.545948321358191,0.497012681327843
750,cane,12m,OC,0.424625940379476,0.49940918630045,0.414923474703621,0.461967727129536,0.443071260184832,0.422154376725356,0.543563261724413,0.523380359490077,0.409985594440428,0.576265893007403,0.492558942105167,0.49830125004518,0.564560251001397,0.495601767333353,0.507333683275296,0.519461132024537,0.442323583680761,0.537976384438274,0.499930700820054
760,cane,12m,OC,0.424831635019425,0.508795788880589,0.4301391685961,0.469233830436539,0.437915092696944,0.430863112566404,0.556974412718052,0.523630175690089,0.392503252032668,0.576366491784399,0.480326806577747,0.497754828993795,0.56938141828435,0.492786737295714,0.501098677042861,0.518272931053321,0.437405136668688,0.52843246357061,0.501538558117285
770,cane,12m,OC,0.427578395177879,0.521048842036925,0.448777470859057,0.480796052478575,0.437486603894089,0.440786552115553,0.565449922602853,0.521281956300743,0.374360329674723,0.576403564876402,0.469349723960773,0.496186091775137,0.569662891051108,0.49121741114885,0.496994030756604,0.517668903873891,0.433398757953127,0.517724099711374,0.504902752252945
780,cane,12m,OC,0.43378917522987,0.534704421704647,0.469062011378155,0.494263545893706,0.442333105554531,0.45098614152447,0.567771003595981,0.520056646957037,0.358183330661225,0.57562603947752,0.461642356995453,0.494875587870524,0.566672915962316,0.487871807696702,0.492569202209617,0.516507820583066,0.430048710654396,0.507381495702949,0.511292286803517
790,cane,12m,OC,0.443721974841207,0.549202471448679,0.487210812021021,0.507904487559604,0.447729064451254,0.463716315296951,0.561898816897193,0.521214135159116,0.351307873038982,0.574574271622822,0.456973702127157,0.494187202954149,0.561570720169287,0.481521822687641,0.487016864304269,0.514491820208014,0.428983351055071,0.499689769349666,0.51760758860333
800,cane,12m,OC,0.456575876312142,0.561294666993524,0.506789795250644,0.52199426824923,0.450457333415714,0.479229356775105,0.55226435625771,0.523889280359023,0.354625136412936,0.574291950509125,0.454197385856912,0.494405024460964,0.557157471917903,0.475382098420127,0.481991610798003,0.51328718480131,0.42825668475153,0.495534540176118,0.52004943037201
810,cane,12m,OC,0.470822544362112,0.565970227360351,0.529618999215739,0.533702602537211,0.45309492154565,0.492186103207722,0.543460193480022,0.525852739226357,0.364534199311417,0.571061252524842,0.451567359887108,0.495221463851553,0.554741517051874,0.472480446934785,0.480104209581936,0.514607489140818,0.426834196211993,0.492671132410335,0.520324851428546
820,cane,12m,OC,0.48521000169388,0.562181247566293,0.548837878201577,0.541252101696127,0.457478741031034,0.498736480820559,0.536304557943986,0.528175226665814,0.380107970527676,0.567473677292136,0.447887872279125,0.498459255086501,0.552603133612646,0.472853338216481,0.483348437278391,0.519897266055309,0.42511930896413,0.490146602338056,0.520931401682446
830,cane,12m,OC,0.497851568984133,0.553323268608413,0.561664527659619,0.546307002500689,0.46341883650686,0.496155724871014,0.532432624372375,0.532178480773356,0.399542127415209,0.56389117817761,0.443050648715334,0.501912839270582,0.548490938202545,0.471838546411996,0.489210562487412,0.525576741873251,0.424135274436309,0.488209499880963,0.521795416040627
840,cane,12m,OC,0.508689348425665,0.543392019681851,0.571112172089152,0.547034576507683,0.470912233767842,0.485710063628936,0.532610756088052,0.537568431714457,0.424093601477323,0.559463568999429,0.43831373657489,0.503825443664862,0.541961843230232,0.468658832767113,0.498736786545644,0.530362660172924,0.423655697976691,0.486462055821461,0.520037050575635
850,cane,12m,OC,0.516974083276445,0.534670349990234,0.57445039930571,0.542101838785162,0.477339883600497,0.471334298973239,0.5355008246617,0.543127828408652,0.450939364635141,0.554813967458762,0.431841029475608,0.503225360954503,0.535609189743281,0.463242977361292,0.510607715654477,0.532794547854729,0.421111269779991,0.485286623228149,0.51738809831598
860,cane,12m,OC,0.523597674666877,0.529212545088056,0.570361653030366,0.533357004991812,0.480613010610057,0.454881037773291,0.53710250639048,0.544232633312284,0.471690163135772,0.549290916497709,0.422893841315475,0.500958755501058,0.53072088972182,0.455618635940469,0.521694232955713,0.530056057960881,0.418503114310624,0.483638634722191,0.515513982105579
870,cane,12m,OC,0.529045636282495,0.527487808783177,0.562477614251295,0.52342739086943,0.482822175232801,0.438109380707309,0.531580683522759,0.542399616982728,0.480140882847949,0.543270329988924,0.415521723034232,0.496426075575649,0.527504050764033,0.44894075936378,0.53172889238209,0.522184651214775,0.41531185996774,0.481510052272806,0.515824091166236
880,cane,12m,OC,0.532256384913195,0.527808424000464,0.554365394581438,0.513346270686993,0.482581318669171,0.422201010193265,0.52291574474482,0.539751097264353,0.478133530225257,0.537236058898557,0.413765721459824,0.490361606280313,0.524681633530243,0.446209504561321,0.544263484408939,0.514873564023937,0.410633984859032,0.479750128323815,0.518489947676009
890,cane,12m,OC,0.534408116767959,0.528152211071125,0.545686063817737,0.501784843517805,0.48152427358028,0.409157553307499,0.512156058511146,0.536679412754508,0.475635125390841,0.53211041174356,0.420187597179925,0.486347522253943,0.523053424354482,0.44646522390771,0.559298648260388,0.511835964577101,0.406711252784374,0.477429791448454,0.523358208285516
900,cane,12m,OC,0.535116411409372,0.527312535729124,0.539653812311856,0.488268939875344,0.479401753499059,0.400308135182539,0.499036893586599,0.534196947316901,0.474381078713151,0.527681510271295,0.432006232054472,0.483358827773034,0.522776415152411,0.448219151229858,0.574768979045152,0.514250808635139,0.404941888749867,0.475794904944188,0.530327312242827
910,cane,12m,OC,0.534859584521532,0.526506975319851,0.536257677700939,0.471151619126567,0.475700326811634,0.396282403124891,0.486748720811082,0.534264474358875,0.472123165059228,0.525267981190153,0.444062006150091,0.482003426779681,0.525199869352867,0.450419331995613,0.589062968377756,0.52199886517739,0.403920538014771,0.477266595967216,0.538236817019169
920,cane,12m,OC,0.536592811964054,0.528429130401058,0.532365733010647,0.449194955628545,0.472089245220246,0.396688457511112,0.475976631228536,0.53756547260226,0.466033441794597,0.523171105254808,0.455182873727671,0.482096130647894,0.52961185782199,0.452703935786946,0.600583670951389,0.534498616126996,0.40400735685091,0.479806160800115,0.544010304826483
930,cane,12m,OC,0.539113969488916,0.531844270448743,0.526932466702148,0.42458004153865,0.468562901644237,0.400443448595159,0.46943669855135,0.542527690997412,0.456850413047901,0.52028891203112,0.464532605847548,0.481741904658558,0.53378719636276,0.456761618974942,0.609097276394234,0.548648570146695,0.40520316553376,0.481941747724527,0.544975844907193
940,cane,12m,OC,0.540794003994529,0.534370807267056,0.52207245720977,0.403213491945991,0.464053493047683,0.40490627077614,0.466623801229831,0.54717041670393,0.44498552673115,0.5175672018047,0.469452855036277,0.479785611453558,0.536669203479948,0.462929772070335,0.612958714117103,0.563789632304059,0.40462718564043,0.483194917855683,0.540230995916853
950,cane,12m,OC,0.540761296216276,0.534354304182173,0.520209154395267,0.387726351825258,0.458361240496901,0.409027867015424,0.470276378876696,0.550501944495767,0.430849790120493,0.51498912476042,0.473440239997982,0.47566395542594,0.536570343290582,0.470327124088459,0.611820386120069,0.575886593978013,0.404748163074865,0.486490990948723,0.532036379557951
960,cane,12m,OC,0.538637107658766,0.530817975312473,0.520884297148853,0.379351605235061,0.451210031889029,0.412135122180192,0.476015647712527,0.553008557259655,0.419779973960193,0.50956916032261,0.477802985275801,0.469717168407095,0.536107939554034,0.476482446129884,0.608423199521599,0.583394809857272,0.405747483032703,0.491259857747532,0.521783725489665
970,cane,12m,OC,0.537943103462606,0.525673435248111,0.518866001792309,0.373730528904067,0.443925929153692,0.414861924760187,0.48236951051647,0.55526221587198,0.41339112758275,0.498256492465661,0.486400469297023,0.461970040620713,0.535474476473726,0.480128109097517,0.604712835179942,0.589391640301586,0.405836120912101,0.496612559619842,0.509304613189902
980,cane,12m,OC,0.53858466524272,0.521372655879882,0.518414677677186,0.370204428822934,0.438761441244481,0.416994879710763,0.486441553706606,0.555934772697539,0.410127046091179,0.483466182461869,0.49871293316991,0.457260032178094,0.536058740243139,0.480605192154558,0.599999169239255,0.593467941919689,0.40776847161441,0.502207037555115,0.495529666632088
990,cane,12m,OC,0.540917765531699,0.521023331715946,0.522538993654995,0.369034770756756,0.435729473624545,0.419505225516834,0.484438980464444,0.553892042822281,0.410794147663638,0.468892936360139,0.508098887723305,0.454490699276207,0.539354789642318,0.477822165736249,0.593224048077498,0.592217547320308,0.413579372638095,0.507570208884226,0.4843284077976
-1000,grasp,12m,OC,0.495272532003441,0.499526428007272,0.525559585387174,0.437381066205771,0.471560830331469,0.458759988024543,0.527936139148723,0.471716369934486,0.46845097161215,0.529101962135401,0.665794007004847,0.455063539998362,0.443837593094061,0.466119450095816,0.500616916563982,0.453824189575219,0.454878160993955,0.498891935266101,0.432695019437205
-990,grasp,12m,OC,0.48549084358373,0.504128047979568,0.530065586306325,0.434694373479564,0.474230875686077,0.465604861164992,0.520754024806655,0.461190110339439,0.458841697889591,0.525841719499549,0.659111323279764,0.457814863612101,0.439801757386761,0.469042102699041,0.50226808083251,0.433065298156817,0.462855069251323,0.506902736204694,0.430950194422445
-980,grasp,12m,OC,0.478832601722621,0.508142859183942,0.535174494259398,0.432037872496371,0.47857198476304,0.469259052399077,0.516990444781012,0.451296738189809,0.450736973299933,0.520939259812885,0.647015820569008,0.460147241996226,0.433265432322478,0.471683519631532,0.503670569552482,0.417873815158743,0.468025143649745,0.513499951825234,0.431683604882357
-970,grasp,12m,OC,0.473950331579253,0.511399156028771,0.540005939877364,0.429214239101038,0.483354956507512,0.470944628399543,0.514727443262392,0.444160480952285,0.444021109483797,0.514187047031046,0.631198956578854,0.462673532932602,0.428318802245632,0.473966661533879,0.50453038767031,0.41107103006707,0.469649285768442,0.519544155597177,0.433679433887239
-960,grasp,12m,OC,0.469648786721017,0.512487651050094,0.546184957086056,0.429476807349137,0.486332718031927,0.470916518472556,0.5127758621197,0.441396267330065,0.438298761255791,0.505906003700226,0.61156273585226,0.466838975369275,0.428344315500536,0.474948211167264,0.50501034035642,0.410806118406429,0.47083515561275,0.52516864346465,0.436095501804268
-950,grasp,12m,OC,0.465323764857278,0.513123363581425,0.552758867057288,0.432510514595374,0.488543166333757,0.466408970506666,0.510482607339106,0.440331259531119,0.432388794742616,0.499677442538991,0.591704887786108,0.472550869749958,0.433413691774232,0.474515456494075,0.504796619707801,0.417082957010751,0.473315623518354,0.527439982602157,0.440600718218908
-940,grasp,12m,OC,0.461722880253641,0.51318462865285,0.55633855679419,0.435655030681076,0.489743065511263,0.456955980939054,0.50517754785001,0.438423648975308,0.423755144198464,0.493811355689993,0.568914656601136,0.479556129559872,0.44163048969523,0.472839969190025,0.503885683653427,0.425258466507302,0.47628416213554,0.527439477173801,0.448035378047319
-930,grasp,12m,OC,0.458077026327471,0.513651330495333,0.555565278449174,0.439728139019793,0.490438090314106,0.445636637968119,0.499156776237808,0.435983534217492,0.414837820133839,0.486028150292969,0.543237530122966,0.488165865499509,0.453455095385499,0.468834462844432,0.503071834641717,0.435052076668549,0.480598590255231,0.526038475578529,0.460867494687461
-920,grasp,12m,OC,0.456925979545186,0.513998637325603,0.552140773778251,0.441069050034674,0.494402530392246,0.435907536697753,0.495595347755869,0.434908868145025,0.408202648906233,0.476577847716953,0.520266420770215,0.497851599089102,0.464920814606311,0.464780626818262,0.50390093754094,0.444362176761813,0.486042994273117,0.524574323253034,0.479919197229393
-910,grasp,12m,OC,0.457382121792835,0.513769274843382,0.546760395229151,0.439885572767281,0.499488661169311,0.431383275029918,0.495863888800546,0.43504643799242,0.407221008622989,0.464966665197852,0.501839682050641,0.506147877105934,0.475208161284391,0.46093502648586,0.506962152869211,0.452081041883744,0.489757340815063,0.522039508568324,0.500430209664499
-900,grasp,12m,OC,0.457411723229435,0.513694696506131,0.54272162127405,0.436575873234447,0.505131453936319,0.434818043591701,0.49675423357543,0.43590636234729,0.413443771816318,0.455405194259848,0.481878765329586,0.510907699582697,0.486375170837122,0.457850735905513,0.511426217122269,0.456562211766315,0.491081799111739,0.518159148063902,0.519236562712291
-890,grasp,12m,OC,0.457362786137551,0.513617392371178,0.542331730626463,0.430614521306481,0.509612284315897,0.438547942953557,0.494806687032711,0.438546620357562,0.424023031887291,0.448509672158814,0.4630315309226,0.509366765068854,0.495431543350638,0.455831846902843,0.516306409458899,0.457916183181306,0.491062843715166,0.513219545086239,0.535285961867772
-880,grasp,12m,OC,0.457591235093026,0.514048998244297,0.546205036900531,0.424798115586746,0.512984470787765,0.440229400183019,0.484735359630489,0.442875840489342,0.433937460746445,0.442964118091661,0.452382315638646,0.503514366598581,0.500896918808286,0.45687008995201,0.518451538546166,0.460957519555471,0.491045367657913,0.507550898679286,0.54702110279375
-870,grasp,12m,OC,0.458576108839281,0.517506838211621,0.550043403665739,0.419332499117824,0.513439045025207,0.442040156092818,0.466790718220442,0.450580717186219,0.440548481365622,0.438802392624953,0.45212057166903,0.496187661653663,0.503073511121217,0.461362097744843,0.517537651028284,0.467608681764458,0.489804721002678,0.50170763077288,0.555281800620613
-860,grasp,12m,OC,0.460389682080811,0.523519641270034,0.551629380763087,0.414146396167421,0.511644599527759,0.446537031096024,0.446462813978377,0.459762301005485,0.445977948669178,0.434612988499919,0.457827753034157,0.487525727290912,0.502064775976682,0.467301175817354,0.515025564222725,0.472394280826666,0.486784036161912,0.495923024992903,0.561044267370058
-850,grasp,12m,OC,0.462105822195581,0.531439319196892,0.548680419787514,0.407272643907086,0.509713752162772,0.452616515999022,0.426342179916464,0.471537230855459,0.453890325313585,0.431065861330075,0.469101978522877,0.47660646245995,0.498191159126015,0.471453821030116,0.514517162545462,0.477712163751161,0.480635047937963,0.491328258905216,0.563544362226316
-840,grasp,12m,OC,0.464012005175817,0.539213190056495,0.540926471931966,0.399062755169138,0.50806512416501,0.459462588960585,0.408114988321767,0.482586604690163,0.463654827474752,0.431703073188464,0.48453661781591,0.465022428248915,0.490298480002351,0.474197106898394,0.519742068786244,0.479651597057655,0.471117483842782,0.486624992510206,0.561824384953993
-830,grasp,12m,OC,0.466222678185448,0.543114352895059,0.528231935922693,0.394644319931125,0.505086976435637,0.465055355470662,0.392867621092221,0.491752306157773,0.475096102296276,0.436643884436984,0.498257827180423,0.454967392748685,0.480915821622524,0.476048746170999,0.52815967048316,0.477120616610374,0.461323284963976,0.48117071190899,0.555823542772431
-820,grasp,12m,OC,0.467465112206637,0.541323761685756,0.513231085856569,0.393728254377018,0.500856190809494,0.470361175374189,0.382419895722474,0.498016208017316,0.487825889342787,0.444210172037874,0.504326316297708,0.447981304798575,0.472558613735435,0.477284570930103,0.537071780747195,0.473106050597423,0.454562172537198,0.475558889256929,0.54478269403278
-810,grasp,12m,OC,0.467339359470803,0.535675970198576,0.498503044376922,0.39559720927665,0.496764645887275,0.476143378250319,0.375098339260401,0.499409639190877,0.501491073017208,0.452825753844809,0.50530777127797,0.447193136247927,0.464837644359054,0.477868793757887,0.546633048188304,0.469445629667015,0.451156388116479,0.470323751274594,0.529162322688199
-800,grasp,12m,OC,0.469255844290034,0.528298140560538,0.487180600715853,0.39837581302922,0.492985049254628,0.480793112085952,0.368270548343777,0.499573700598106,0.512993555059353,0.460963602172947,0.504278874077833,0.450996853810757,0.456823690630358,0.477083067344161,0.554719915278592,0.469346938022435,0.452098907326343,0.466878232891529,0.513724918533734
-790,grasp,12m,OC,0.473657730852244,0.520840592680479,0.480393888080347,0.400871135671732,0.489863118053626,0.480181621197961,0.363941031492928,0.50159474603257,0.525125970363298,0.467143155142168,0.504860690063565,0.457752926748068,0.449496816055152,0.47485264671406,0.560211023821924,0.473384802619474,0.457507960719709,0.466070920572404,0.502677361346923
-780,grasp,12m,OC,0.479867217981926,0.515648408107076,0.479475034410423,0.40488700587238,0.488457539735996,0.47459237262859,0.369090292701206,0.503682955118851,0.540853744985528,0.470111033680347,0.509399416107905,0.464920170650553,0.442622331658276,0.470881341910267,0.564552340167019,0.478828532852419,0.467585331381429,0.466327584816427,0.497826645586428
-770,grasp,12m,OC,0.486044301003061,0.515461288833265,0.48275840313939,0.408917198020205,0.488785367908319,0.466322916629719,0.383235617557322,0.506204684716446,0.559426540006516,0.470805976189298,0.515064469226496,0.471497985415637,0.435649516152376,0.46593533279271,0.567516926162998,0.482795750820048,0.479810595567699,0.466935318014897,0.495832784537008
-760,grasp,12m,OC,0.491430605012124,0.518798822957948,0.489897702482616,0.414283760883967,0.487790947373363,0.459520949815011,0.403821190735316,0.510240306850855,0.575306838609112,0.469255085037199,0.520923205898547,0.47694994780497,0.431262066591009,0.462403393706125,0.567258408413605,0.482685836106725,0.488201426954391,0.466747505818895,0.494646123942366
-750,grasp,12m,OC,0.495500401454261,0.524532194924499,0.499643352089131,0.421151339526778,0.486059497487218,0.459643320725586,0.430153957383467,0.515779495051881,0.585426967235256,0.465788422209337,0.526081069634185,0.480872354109777,0.432086963131313,0.459884241192248,0.564511007576371,0.477457445527113,0.493195777988864,0.467676109914742,0.492300194140171
-740,grasp,12m,OC,0.497767294870733,0.528854407074876,0.509086005372425,0.431177247562959,0.483348700307454,0.463979045658009,0.458922993243652,0.5236580932837,0.588733715998839,0.463408057723773,0.528230193720241,0.480384554205614,0.438081020054775,0.459341773657626,0.560941118511186,0.465412972637086,0.495365867604302,0.468810940359471,0.490796814847917
-730,grasp,12m,OC,0.495403783097859,0.531142772195635,0.515765232241233,0.4405068136947,0.48293495176971,0.46981221069362,0.484967572872968,0.53368851797088,0.584917965292924,0.465977237145259,0.52843240574231,0.476726805055528,0.448539269540438,0.459486078020936,0.557999202405188,0.453211791724378,0.497723171139303,0.470845654664568,0.492191370852913
-720,grasp,12m,OC,0.490143188478391,0.531395698038568,0.517217195236343,0.448778797319609,0.483682382713511,0.475281153541627,0.506379811843418,0.542198609546653,0.577636404033448,0.471088578081404,0.529667946071538,0.470841936713581,0.463268364078244,0.460285018491076,0.557579976136608,0.444019786464636,0.499632434469693,0.472320141507906,0.495022201771463
-710,grasp,12m,OC,0.487106310568747,0.530931100718271,0.514420278292058,0.455231684458679,0.484701075943104,0.481636847531771,0.521481885864547,0.547332856109025,0.568416420442843,0.477628558796154,0.531398009141718,0.463254894441203,0.478774158562112,0.462177070180716,0.558819866797507,0.4406395090385,0.502247930790632,0.472994384130599,0.497676110979372
-700,grasp,12m,OC,0.486604075308146,0.532616097795912,0.512965208940337,0.459263239371889,0.486143767796016,0.488175961094783,0.528517226242744,0.547935612664572,0.557563537053842,0.486683341791444,0.539389722268889,0.45563952058442,0.492594858217547,0.465038085379343,0.560089990471795,0.441773514189702,0.505143463941654,0.473212818994587,0.501291061562864
-690,grasp,12m,OC,0.489469233976007,0.537023908480835,0.512652224806523,0.45982118220013,0.489016497240484,0.494263974560342,0.528103066762826,0.542224028966646,0.547852776484087,0.497056959445552,0.54730395891372,0.450601697126447,0.504145387350057,0.469223344809698,0.559915647398201,0.445091243686316,0.505524252408928,0.470090285465791,0.503698646801771
-680,grasp,12m,OC,0.495448239306089,0.541481521092012,0.512202349439877,0.458128458963063,0.491660405617978,0.499833687181896,0.524988936076942,0.534191671031194,0.540829416126163,0.507020823199396,0.552161389924556,0.448451110792378,0.515339807442501,0.475544269708656,0.558212400401709,0.453718835348242,0.501456796342145,0.462942685406193,0.505883212320163
-670,grasp,12m,OC,0.500856594606649,0.543490477273043,0.510395845894752,0.457493405666452,0.494964604454115,0.503066858169216,0.522811541708907,0.52727579938915,0.537889261384684,0.516597945708601,0.556755236096589,0.450095518481409,0.526103074863738,0.483754011016375,0.556208228504768,0.462491602006678,0.495770996174337,0.454079496367685,0.508372109901979
-660,grasp,12m,OC,0.504744365068114,0.54288373169905,0.507420701581604,0.457696779727564,0.498952270287248,0.503292886449352,0.520073843261585,0.522795743630705,0.5388692867127,0.524670016352204,0.561505769456111,0.45627675706946,0.531234586073477,0.491075247348495,0.555005071671541,0.470136647077772,0.490089992177824,0.444846849427669,0.510668855991642
-650,grasp,12m,OC,0.508097348120845,0.541358575626399,0.506481255119746,0.456649589859666,0.501277268152037,0.502505033196392,0.511857895502874,0.519980615834526,0.540131769664874,0.530160908870498,0.565945156615751,0.465347232324424,0.52845261054888,0.496054250359683,0.55565092175697,0.474901130588929,0.482524386899858,0.435057530776632,0.512888999042277
-640,grasp,12m,OC,0.509382308915711,0.539633833727866,0.505755613138465,0.457466029622093,0.503840967638824,0.502697114019151,0.500463140163411,0.519510195462151,0.54020378558282,0.532175795715311,0.569455431788866,0.475879520224891,0.522132632292536,0.499609522259168,0.559910582035059,0.477170521833648,0.473805954103113,0.427513305240882,0.515478536393767
-630,grasp,12m,OC,0.508357423081174,0.538469978472844,0.502948441959039,0.455664011407785,0.507700246118693,0.503130651446136,0.492041936596971,0.519395867239547,0.538366960322976,0.529080005375887,0.567810711975274,0.485358698858591,0.513067064569325,0.503206833904509,0.568146266348416,0.479314235873928,0.462583556342008,0.424344740199354,0.517210461019461
-620,grasp,12m,OC,0.505950141746575,0.535987395013309,0.500361499654449,0.451769215765959,0.511366572250188,0.503074397349924,0.487722589341971,0.52214388304109,0.533905389453218,0.524636195173666,0.567472035666242,0.493172595657052,0.50199857653825,0.507554266603058,0.579247572824017,0.481421552195388,0.448158101176164,0.425096134022586,0.515159266640792
-610,grasp,12m,OC,0.502499250128111,0.531988836578053,0.499867041939077,0.44511382240764,0.514182876004645,0.501613553453943,0.484489933079174,0.528790317194478,0.525912646051454,0.520411406540359,0.574014864972165,0.499860884954168,0.490003720797018,0.511310433235132,0.592095278283592,0.483382419417504,0.432020955034379,0.428468970859483,0.509659580913116
-600,grasp,12m,OC,0.498055720296104,0.528624745271186,0.502346892003717,0.439761655992746,0.516747646336061,0.498973431802501,0.483202227973653,0.539595916724414,0.512273831345436,0.516785317756079,0.586880347697394,0.504310821190581,0.477693673745935,0.51337359540305,0.605734050090443,0.486170033572159,0.420575811084377,0.43452931298396,0.501008429546669
-590,grasp,12m,OC,0.492503617049929,0.523669669187784,0.507055706311516,0.438786976278928,0.520194609369187,0.496854526576659,0.481388242027129,0.552412262674052,0.491475865155703,0.516650376077421,0.599633710639186,0.506029499666959,0.466525725556593,0.511763803858946,0.619075651486179,0.488649231931229,0.416917536347554,0.44259214816494,0.489682059183078
-580,grasp,12m,OC,0.489164467622045,0.516612138119083,0.510485252622616,0.440765334542166,0.524285244556716,0.495392345143149,0.481066386424264,0.563083847039835,0.470676721564604,0.518111423725011,0.612037844181531,0.50638235916347,0.457080442194719,0.507619896833544,0.630471337051761,0.48804595335839,0.419539670938214,0.452503057451101,0.478426259823082
-570,grasp,12m,OC,0.488885836444762,0.507485343445771,0.509589128221925,0.443056485165714,0.527535777682127,0.490906337755692,0.483708612384426,0.569718405637629,0.452774996773357,0.515936674489179,0.623376337816579,0.508467814489809,0.45059037435196,0.502518932443164,0.638118014640996,0.482431032626463,0.424385552613419,0.463343153938198,0.469247844712645
-560,grasp,12m,OC,0.490720374821816,0.497540314773252,0.504385720254144,0.442099472055646,0.529203848738131,0.483689167963505,0.488523718521926,0.572050109314383,0.439952772379787,0.506795001517603,0.632496437055321,0.512415764771432,0.447731024606211,0.495339628987397,0.643888597845666,0.474100417444583,0.431500372644802,0.47234326038433,0.462870152473399
-550,grasp,12m,OC,0.493246122554493,0.48866011228813,0.495996924580519,0.438198020566536,0.52912118860615,0.474870811542739,0.49570393970126,0.571194223011059,0.431707675971481,0.491432375236518,0.638186248212181,0.517189796330394,0.448169350808317,0.488024439182984,0.648560579014335,0.464044380601952,0.440853158315071,0.478593371408624,0.457115988597361
-540,grasp,12m,OC,0.494810859726158,0.484047592496787,0.487704405943355,0.434293083905738,0.524821027003915,0.466442246430141,0.505342651241091,0.570155775916795,0.428050794096565,0.472580197770363,0.64077588016675,0.52175587331671,0.45152986767835,0.482260442512202,0.651963465809769,0.452493111002506,0.450233619470721,0.480277126064303,0.450544993634464
-530,grasp,12m,OC,0.494878291014183,0.484010669835139,0.478670950589018,0.429495857009268,0.515877208416085,0.459690297414771,0.51722184837901,0.570879337860515,0.428078492231847,0.455240604006123,0.644409372529041,0.525461691810911,0.45280873065741,0.477076303631065,0.65454919927288,0.44320055231065,0.457004537928452,0.478257725616739,0.443818323477005
-520,grasp,12m,OC,0.492013392109509,0.486502574080455,0.472208285788498,0.424394184290585,0.50562796088067,0.453236078830272,0.52742343141308,0.572934640812315,0.432352961414354,0.439933802919839,0.64755349039656,0.5296018299658,0.44980793272244,0.471504254338684,0.655707395394029,0.436744710381173,0.460296161099092,0.473145818810454,0.438156264290253
-510,grasp,12m,OC,0.486962329860575,0.488083746346797,0.467264192763078,0.422754840968173,0.495428458666255,0.446935718486917,0.531002476252782,0.577642673161431,0.438923568554552,0.426524102250929,0.647375057759459,0.53530103730904,0.444245011894166,0.46634693608315,0.653554730006405,0.432360704918688,0.458209573440204,0.467497940031554,0.437421258254611
-500,grasp,12m,OC,0.481938365430821,0.485705647372462,0.465821784823463,0.423771968511023,0.487969231569272,0.441521250161066,0.529914522126587,0.584541518063539,0.443829803439966,0.415701415037667,0.642625050777089,0.541796345504108,0.437361305517457,0.463714479830443,0.647540728922644,0.427897174441385,0.45216806742735,0.463504056021691,0.440746303979045
-490,grasp,12m,OC,0.477033712727772,0.478394389959069,0.468162706985232,0.423397036326109,0.485240565156679,0.437909011112095,0.52548497965129,0.590215899139898,0.445997556249599,0.409183581730691,0.633352529420726,0.545935387466931,0.434210821768703,0.463293280932246,0.639416730300754,0.423036316131144,0.446047995535551,0.461450319920499,0.448816537903693
-480,grasp,12m,OC,0.473162299474088,0.470409106300916,0.470574515969877,0.421156423955189,0.487082087618877,0.436784171409361,0.520580667797941,0.592243564681717,0.44570495813661,0.404837836572923,0.619181651751621,0.547176388450291,0.431308212149934,0.46473086704127,0.630480352726105,0.4151329665809,0.440040072696577,0.461529817013776,0.461511025780044
-470,grasp,12m,OC,0.471819642542061,0.463435899771948,0.471921283796816,0.41825350329046,0.490507381047131,0.436884208157709,0.517748473172027,0.593368925382357,0.442193167187797,0.402673831169618,0.602200364113795,0.545009464394755,0.427203674750321,0.467963554502509,0.622721326173906,0.407424477914461,0.433291014242411,0.463745799461931,0.477164600744772
-460,grasp,12m,OC,0.474834091087919,0.456923847710784,0.473705890145778,0.416198128284504,0.49434121867693,0.438228087906929,0.518410742971972,0.595631893026765,0.440823074359935,0.400446050136785,0.584479315970664,0.53845131825521,0.423679123772259,0.471589226477857,0.614878716797122,0.401977196497135,0.421062746077326,0.466192981275607,0.491660129287787
-450,grasp,12m,OC,0.478838665328763,0.44986541528299,0.478424612059273,0.41633117080729,0.498443851405133,0.440621522656511,0.519909408480649,0.596877286902233,0.438109894348788,0.395800626302366,0.567796130340074,0.530461771227068,0.424649332288927,0.47528035275613,0.60440673180251,0.397734372326603,0.407626947974666,0.467291494795911,0.504275580807289
-440,grasp,12m,OC,0.484736524241128,0.444234086962416,0.487679082820337,0.41882594669388,0.50243705307816,0.442997440204264,0.52065191787694,0.595340984382747,0.433350251996723,0.388481359455851,0.554520573103052,0.522751716330281,0.428376327144433,0.479042757460378,0.591450442754841,0.394580140674157,0.398466982805022,0.466543491737908,0.513710684994779
-430,grasp,12m,OC,0.492761672511128,0.441269266616067,0.495946974414529,0.421590758318585,0.505422630104514,0.443752303751211,0.516459041526069,0.592136346648775,0.426797452538119,0.384737299396729,0.54833490646291,0.516675527377957,0.436245875395708,0.480899928029105,0.578971565930592,0.395732273923807,0.396848381726842,0.466120254187683,0.52026651449822
-420,grasp,12m,OC,0.501422307330982,0.439190463303704,0.499370283875554,0.425605682208127,0.505841529204918,0.442425574870825,0.510736371292819,0.587070971650038,0.418371916850676,0.38528967439751,0.550992220636759,0.512144806050195,0.44432508127747,0.480460700220152,0.568400807910892,0.404633749645735,0.402218600392264,0.46509128795246,0.524185413806944
-410,grasp,12m,OC,0.507981808451203,0.43611403072197,0.500047872258474,0.432281817445811,0.502275666998965,0.441660315027004,0.508325970740657,0.581118048812104,0.410113055588667,0.389719718172013,0.561029142821217,0.510137231811419,0.45064764373284,0.478410204188875,0.559303834595533,0.421292743900991,0.414159246738317,0.463714371233035,0.526875050629467
-400,grasp,12m,OC,0.513623161768827,0.432777029794407,0.501791149035504,0.44166339898873,0.495881129603654,0.439647105388756,0.51340484437765,0.576756016050209,0.404754414764436,0.396085727929235,0.574346994398423,0.509331985546706,0.455488829516077,0.475571350671477,0.550828769895165,0.44267384749866,0.42827728013737,0.462704153061682,0.529998972125889
-390,grasp,12m,OC,0.516754124077953,0.431101664504524,0.506637478896635,0.451069828843983,0.485950575448569,0.440380938003233,0.525667864891638,0.573887299396858,0.404834453250398,0.404695446502321,0.583733045539529,0.509004405838491,0.458093022391142,0.471557485787429,0.543134301410194,0.461807830691908,0.442343671199018,0.462422573151335,0.533015370010735
-380,grasp,12m,OC,0.516503751332907,0.430836666169499,0.511355714121824,0.457020342393615,0.476622318957823,0.444989910794795,0.540486208779095,0.571551568352628,0.409614606337152,0.413974462370414,0.589636237856697,0.509847289365233,0.458456778471302,0.466473339669442,0.537604960209751,0.479747811187064,0.452371297983033,0.463881401734737,0.536377369818048
-370,grasp,12m,OC,0.512978815407152,0.429620821664235,0.512981146709751,0.459138397253021,0.470242252539394,0.44817566190311,0.553145300754406,0.571119469427575,0.416428485711762,0.421883471185194,0.596288409063712,0.510726908334853,0.45818408505882,0.461212091209011,0.535290041055813,0.50070723690693,0.457335344579168,0.464580909526738,0.538216524941734
-360,grasp,12m,OC,0.508567337694861,0.427058652712773,0.512453421417244,0.457503378290438,0.468532667122704,0.448226659393663,0.564994311217097,0.570453104752754,0.419498680286811,0.428250204839863,0.600319547784025,0.511994077694344,0.457138668297283,0.455504932403081,0.534575352886932,0.525446214197029,0.457020583014515,0.464341612590723,0.53902089861939
-350,grasp,12m,OC,0.506577952537245,0.422422706400641,0.51130678457637,0.454365886024309,0.470244383629962,0.446664481331864,0.574335458648522,0.571730032670061,0.421236553419386,0.43309348790204,0.598978244419928,0.512676857848335,0.455862664107196,0.448132395731443,0.534490880266163,0.55183962975764,0.45431424255502,0.464970487902379,0.536745242190473
-340,grasp,12m,OC,0.50810702329516,0.418555297475247,0.514217009367885,0.45311523390574,0.471539673270558,0.444738213846766,0.576868771486167,0.574020270483506,0.422527635482133,0.438910546727971,0.591469698912307,0.512215801172708,0.454047608521496,0.442465245525205,0.532963728423272,0.575388189712187,0.449007374448884,0.466790354889506,0.531541839071147
-330,grasp,12m,OC,0.512063469289254,0.415986027166801,0.522202796336671,0.455472602577928,0.473196043983984,0.442862000171303,0.567994393447075,0.574680547525317,0.424249127360191,0.446219031971417,0.584172055454325,0.512501607561452,0.453410581340659,0.439225648997216,0.528920583107199,0.593972167847789,0.44115562735081,0.469496823455901,0.526546106566154
-320,grasp,12m,OC,0.515550464973801,0.413611535820968,0.532830217648281,0.461047317230118,0.473507956961841,0.442545630966478,0.552886884922845,0.573352774351067,0.427709268826154,0.456088780527499,0.577611374867136,0.516474694440866,0.454986970786892,0.439354420311529,0.523410517104898,0.607741713222185,0.433385573726197,0.47306890702061,0.522135210478271
-310,grasp,12m,OC,0.51601284210786,0.410531062740862,0.540911039006386,0.467224544183536,0.471420294575547,0.444548775900835,0.540505923816595,0.56893110824126,0.428939876910306,0.468532294335968,0.57181126451362,0.522899727027108,0.45806072596584,0.441526491491939,0.518151683708894,0.617486912313867,0.428109916374795,0.477354672739167,0.517411051482807
-300,grasp,12m,OC,0.514766174714199,0.407626688400509,0.546368248316576,0.47124660774809,0.468775628862556,0.446178843444734,0.531415628766621,0.562900376753671,0.427947978158764,0.482244609942734,0.570184615093413,0.529390337831307,0.461414320136817,0.442986710318049,0.51326530670477,0.623044110191355,0.428842809093092,0.482620519880765,0.51025721270984
-290,grasp,12m,OC,0.513051988222427,0.403918956085475,0.547852782750439,0.476375124743568,0.467846454156348,0.446337583079914,0.526662923158415,0.555621212100173,0.428338721817057,0.493884467921397,0.569617438739105,0.533079111551135,0.465643890281635,0.445534653276305,0.507367187138071,0.623865919972646,0.434753585815067,0.487709616967281,0.502366695328634
-280,grasp,12m,OC,0.511981145568016,0.401291969075856,0.542751167315125,0.485428335693014,0.469671934855155,0.446464983415426,0.527266089881526,0.549536635335228,0.428569232501278,0.503023169947032,0.5709094586758,0.534296060913511,0.472490827904181,0.450438160036642,0.499905126897238,0.618705789141104,0.444473941110232,0.49108681224164,0.497678548451885
-270,grasp,12m,OC,0.510604458742676,0.399163792256966,0.533184681502499,0.496281824107134,0.473247258844128,0.444330761798779,0.53341188885495,0.546689355106053,0.429251331158629,0.510870935936001,0.57270894258791,0.534223757178001,0.479809400005832,0.458117524604696,0.491808509590896,0.608422114508125,0.45814437698209,0.492515489542745,0.499245639783698
-260,grasp,12m,OC,0.509671150537957,0.398213086075547,0.51768572606665,0.509868195909881,0.477149821183039,0.441940557130978,0.539289772613634,0.547205412189758,0.429539186116513,0.516815731065599,0.573321303005398,0.533012805592668,0.48859001442972,0.467366854167532,0.481937790606737,0.599972759810605,0.473520315318304,0.493118062354193,0.507627262150705
-250,grasp,12m,OC,0.508707182444463,0.399095776638467,0.504586537018124,0.522772948309993,0.481224065284777,0.43925399746185,0.53784018268609,0.548997909547666,0.429869046202681,0.520982188981392,0.574156502182013,0.531773953171921,0.497986642130564,0.476316186424501,0.470687059069456,0.59614935293368,0.485931113613183,0.49264318169924,0.521020320926842
-240,grasp,12m,OC,0.509097574505156,0.399628411402517,0.497595921644139,0.532616052710725,0.48711595210273,0.433993412861892,0.525149022721327,0.549180688137747,0.42959388105515,0.522617533350548,0.571942416254638,0.531859068059007,0.504360868955554,0.483030755719954,0.462033136477814,0.594183974979271,0.493905982754801,0.491186298847851,0.538917145774761
-230,grasp,12m,OC,0.509650060360272,0.400011028096895,0.49596779181339,0.540862427156295,0.493636437489429,0.430135408776406,0.502891390917585,0.546217481658914,0.430830500468827,0.521335721432335,0.561598556314224,0.532818738448245,0.505313988121658,0.487022944435768,0.457980308845628,0.590509058067072,0.49452704372716,0.491038800910056,0.558193383518484
-220,grasp,12m,OC,0.509841455555757,0.401834356955237,0.498703025599695,0.549839858052377,0.499504081748218,0.425290116612398,0.474496938627027,0.542090554677735,0.434071386744152,0.517522428809319,0.546998220870216,0.533910898154698,0.503163400673479,0.491176992806125,0.45871188352576,0.587876794181888,0.490206006526876,0.49269161193544,0.574768025591743
-210,grasp,12m,OC,0.508717771271354,0.406944260697231,0.506648133119868,0.558771428662326,0.503900275591777,0.419348455839553,0.445422884476668,0.539407699816564,0.438537383407425,0.512577133128697,0.533434914576865,0.533801104729053,0.498109365164873,0.49436371856402,0.46204181627391,0.592285237384843,0.484294607171582,0.495099426789024,0.585764411184331
-200,grasp,12m,OC,0.507908526981731,0.414823823596483,0.517024486617681,0.565763967361707,0.505537761764367,0.414497923437134,0.420676770317831,0.538665833757764,0.445952287591897,0.506137037229013,0.52283888593932,0.533303365228419,0.491756508412622,0.495791922455558,0.465035004596724,0.600352155627756,0.480252420089836,0.499100736996517,0.591081476598912
-190,grasp,12m,OC,0.509026334167715,0.422277582691982,0.526331055015787,0.572115885477288,0.503988762856669,0.41156198832481,0.403644083574429,0.54017900830008,0.454430722540751,0.497933088252131,0.514138601413855,0.531668762024651,0.485587440581687,0.496717134823967,0.467377241539264,0.60845736326578,0.477570024727238,0.50277022996977,0.590608359708109
-180,grasp,12m,OC,0.511684305575656,0.427712392249569,0.535034869240862,0.577671289020393,0.501242845891098,0.410765147696787,0.397668583342624,0.540292163968727,0.463678558302677,0.489757711691497,0.506506480548929,0.529271051222374,0.480632857563377,0.499587281103954,0.468176906304192,0.614749813165828,0.478273991615736,0.504402837753346,0.585427633221957
-170,grasp,12m,OC,0.51648387991482,0.431941821776424,0.540419813662481,0.583591575319989,0.498536638109375,0.41237348895433,0.401391648588961,0.535148104090332,0.474628898366129,0.482401000753822,0.500880248671839,0.525066844910782,0.477075072406591,0.504016094079388,0.466122033831267,0.620278299969968,0.48304157423328,0.503173946448917,0.57670801942211
-160,grasp,12m,OC,0.52235314290603,0.43621867289704,0.541401776200846,0.590481316503603,0.496721695989951,0.414796747886252,0.411057147777927,0.52693554903959,0.48528045787217,0.477721351382354,0.49796032767186,0.520641324082153,0.477940505096492,0.507815855799308,0.461714488423299,0.622754085778358,0.488583500687402,0.497961235079787,0.567310380565084
-150,grasp,12m,OC,0.528110241146848,0.440163344055462,0.540596918504467,0.597192521357511,0.496415930062191,0.418370373125318,0.424312538116599,0.518961184021567,0.49409597431001,0.476948185681506,0.496547262425551,0.518393072160333,0.481728381312476,0.509194246203642,0.456953528952748,0.617094011430397,0.492161222220876,0.490949012117721,0.55750448946561
-140,grasp,12m,OC,0.532629550287203,0.442548102300823,0.5416872906305,0.602294767532363,0.496615418750017,0.422355878560924,0.440380169757428,0.509167197046629,0.502617080598058,0.478604588202874,0.498810487691729,0.518122028901735,0.485797093347916,0.507756041947255,0.453003160327735,0.603639286326825,0.493176895054296,0.483917017422593,0.5465195061343
-130,grasp,12m,OC,0.536065698105445,0.443063293034646,0.546847667790513,0.602755925178438,0.498589742632484,0.428776319635596,0.458372688272415,0.499280565012277,0.511960617921804,0.481393539165645,0.503459383437447,0.518968122640203,0.488341122566668,0.50299453932464,0.448240807713418,0.585531642321712,0.492924463669465,0.477375778576775,0.532983938162297
-120,grasp,12m,OC,0.537835067913294,0.442022569973055,0.552280329517722,0.599477032627385,0.502436772205034,0.434889795817933,0.476401545506748,0.492661807928161,0.520444044384054,0.484853889330251,0.505050807906865,0.520200932478787,0.488999374547679,0.496440957295739,0.44350535548523,0.563505824982163,0.491185617337829,0.470677681361813,0.518316628015111
-110,grasp,12m,OC,0.539688788958903,0.440970505863181,0.557154231825543,0.594198473803225,0.508892126071083,0.437757774366199,0.493241548052344,0.493758780415604,0.528766301642935,0.489783000642293,0.501707752409383,0.521021827349413,0.487137432234323,0.490471525974042,0.438850204036755,0.539680334568479,0.487099834796374,0.463815119900799,0.504949109970626
-100,grasp,12m,OC,0.542862108787337,0.439375825232486,0.560813883063558,0.587752614641744,0.516232680474703,0.439596944766593,0.508445023166476,0.500651819529091,0.537500095442987,0.496325863218399,0.499173310405188,0.521323087228769,0.48374914191903,0.486421251038385,0.434064358737217,0.516790627575252,0.483354291694419,0.457674309898436,0.495580596420942
-90,grasp,12m,OC,0.547944166985713,0.438670227966921,0.560199183646471,0.580709435936603,0.523348472256635,0.441839522741311,0.520758556876504,0.509381365096129,0.545530741161982,0.503888989603675,0.500652709161211,0.52067221094721,0.478573948665533,0.484093863053159,0.431252217959729,0.494401283101742,0.482289734261939,0.451324484188585,0.490491364012887
-80,grasp,12m,OC,0.552871593778828,0.439473930145033,0.558567594050147,0.575709068634102,0.531032047472509,0.444445433253616,0.526362763065471,0.516150666121686,0.548953439303692,0.512193542935525,0.507545385610446,0.519638781159772,0.47310776614332,0.48065129377663,0.430598101033286,0.475847536041972,0.483227074524155,0.445773212267465,0.4878724407505
-70,grasp,12m,OC,0.555953569898081,0.441859767953356,0.555909098985103,0.571656822916889,0.537247933644247,0.444113868693762,0.522068900972643,0.521901188062851,0.545133383023649,0.520153835880387,0.519091428305422,0.516750988000913,0.468139237390082,0.475807487746235,0.43239766045197,0.462804509876966,0.487722980121613,0.441152154710432,0.488615261544867
-60,grasp,12m,OC,0.556761812158828,0.443473404105313,0.552812538158193,0.573177050846029,0.540855489054641,0.440894928389061,0.511931195370413,0.52568004820792,0.540461829067725,0.527241525603896,0.531599311921795,0.513733876281426,0.465440169667519,0.471217825346783,0.436558134240103,0.453064756951977,0.494677957510093,0.43744380920625,0.490691864642494
-50,grasp,12m,OC,0.557328293522071,0.442123970226856,0.551516552741594,0.577783009947416,0.541580692935927,0.440662643300957,0.499659109987943,0.527717245957084,0.536122011808153,0.533654699306164,0.54529704133979,0.512346402991048,0.465241666063999,0.468525133581118,0.443194086745614,0.442167135624111,0.501425314828479,0.434817442162775,0.493187732511147
-40,grasp,12m,OC,0.55900183486091,0.438119722024242,0.552071543395153,0.5808665403984,0.54069492871429,0.446321704009797,0.486283143686844,0.527820583859457,0.534605026712384,0.5397233307329,0.560587609306461,0.510461170766286,0.468477274008616,0.465606559265504,0.453160097792143,0.431679673684612,0.507577610754966,0.431656462323333,0.494731448437583
-30,grasp,12m,OC,0.560906509310321,0.433274260815111,0.553107496541829,0.581222299867071,0.541334495236757,0.454130374838761,0.474453184858805,0.523970257388943,0.535335825219277,0.546758060355415,0.575240649779967,0.504494735643611,0.473714412301017,0.463528863031442,0.466208582710482,0.423572038214859,0.509792730701832,0.429525340857561,0.494360282445605
-20,grasp,12m,OC,0.561604909619082,0.429300871702125,0.554535463835048,0.579355702347708,0.542679369752236,0.462460479099726,0.466528590933949,0.517970766831226,0.535958082240738,0.554010815102817,0.586146245375993,0.496252482420275,0.478035104000244,0.464213243324161,0.483771426770786,0.417119177245103,0.506365404467595,0.427942555003112,0.491586918422398
-10,grasp,12m,OC,0.561308781234303,0.42782143073785,0.554339985464721,0.57610922619849,0.54378938275657,0.473056039830473,0.462131847987743,0.512132630440865,0.535360393447822,0.55849490365255,0.59619383567115,0.488671264162196,0.480487659850329,0.465446161006206,0.504146458244284,0.419029383346502,0.501209677121718,0.425284432647934,0.489185735376177
0,grasp,12m,OC,0.561045626042174,0.431509606599346,0.550152165463793,0.573714868815349,0.543839093372418,0.484923127752159,0.462082699412396,0.505984267338953,0.533699083782443,0.561030295214413,0.607168437466285,0.484020857828164,0.47987498395865,0.467068379718272,0.524619719899915,0.42377715047293,0.495687576409549,0.421047993893282,0.487512200643128
10,grasp,12m,OC,0.562379547101059,0.441882645725781,0.546792392693326,0.57346583567,0.544129511800451,0.492043662926656,0.466075003814627,0.497863148884693,0.532683845009531,0.56315731951786,0.612658277100402,0.482651569355268,0.478416544221671,0.469361486821625,0.542306336136739,0.431493705490092,0.490868403153909,0.415800202475246,0.482770389400171
20,grasp,12m,OC,0.564085929095859,0.455159027367512,0.544744026405547,0.575148551756472,0.545260725961915,0.493547975951799,0.473104514902116,0.488281497667636,0.531066183606515,0.567105373232572,0.611244461123044,0.482663541858008,0.475263885848375,0.472254305942631,0.554789272940489,0.438393567586778,0.490015405252441,0.411273754294973,0.47804321602707
30,grasp,12m,OC,0.565618337267792,0.467480420778037,0.542237248105893,0.579125045483139,0.547459119297426,0.490283579621062,0.479221062278442,0.481848472164836,0.527683683134009,0.571525556098755,0.605995749517264,0.483722158802393,0.472430386183339,0.474110272199078,0.561623434579252,0.446421745456863,0.494607994533416,0.409098063608889,0.475139887996736
40,grasp,12m,OC,0.566937302791407,0.478900116938685,0.538994886513475,0.585307005142544,0.54896573616994,0.483435250258564,0.483427126633302,0.479109026999606,0.523837525677201,0.575460346307907,0.598262499142956,0.485563381803215,0.471558403121746,0.474577700204174,0.564936391198491,0.453291482379212,0.500319836773001,0.409913482258499,0.473193987751179
50,grasp,12m,OC,0.56918310497108,0.488936627574928,0.532079489629967,0.592267084777494,0.5507914010679,0.475896257196893,0.486726380066829,0.479581848248017,0.52189870495465,0.578119853418384,0.590043541010831,0.487288630741891,0.471020984746165,0.473464950227407,0.564908761782758,0.456849900461365,0.500407695058645,0.413481881397188,0.4729975164158
60,grasp,12m,OC,0.571479958129433,0.499495363116963,0.515320726867849,0.597915050670013,0.553276767188306,0.470303577143915,0.490443781487874,0.482245408005319,0.5184353980085,0.577941414398231,0.583264157836848,0.48769123672909,0.468367946334013,0.471769956175459,0.561568662454233,0.46024818763631,0.492651527791034,0.420054807163801,0.474677149154334
70,grasp,12m,OC,0.573564738774677,0.510802877834767,0.492956951211391,0.60365639637992,0.555344384227776,0.466632733182489,0.493623946274219,0.484325453982904,0.514778390492341,0.573955188464727,0.573553027061565,0.48846201062325,0.467366012255012,0.471447929874469,0.558983236450098,0.465885810018574,0.481717337761374,0.42901940131902,0.477238930519501
80,grasp,12m,OC,0.572749914693202,0.522233028727145,0.470934294630891,0.608934037534495,0.555241323059577,0.466786112782272,0.494133592004583,0.485887318614358,0.510189029657984,0.568914394114273,0.561186263623523,0.489007236698877,0.471735686860838,0.471638832198229,0.557361357539246,0.474196511233676,0.468371731146799,0.438668562369223,0.478726373207092
90,grasp,12m,OC,0.569653111828261,0.534491046551012,0.452480673731132,0.612842223097166,0.552065396046418,0.470312737234794,0.4914096156062,0.488193733199923,0.504666772295236,0.564902437217736,0.548820323469391,0.489898780448065,0.47831567438176,0.470445490700046,0.556988618146973,0.482525359452552,0.452998590302683,0.447273034129311,0.478987364475377
100,grasp,12m,OC,0.566396447944578,0.549221969426709,0.439274143235093,0.614611813327507,0.547082068941129,0.476342701115436,0.486730775827343,0.490547032909554,0.499128543335958,0.56222483723204,0.541751404296083,0.489996737427345,0.48498260588805,0.46859015877675,0.557996817222615,0.489531752418216,0.438666096548413,0.453229072781809,0.478661099509946
110,grasp,12m,OC,0.562706764582039,0.56354307390589,0.431596447720316,0.615415956808425,0.541046553614278,0.483384884425388,0.483347269500987,0.491692744480883,0.494204409567681,0.561099835032289,0.54104094703942,0.488932968975109,0.490607509916416,0.466621244078644,0.556285898608703,0.494874105191298,0.429957035231056,0.457593091015285,0.478107364166978
120,grasp,12m,OC,0.556720817547406,0.573596411917609,0.425706315190086,0.614522144124922,0.53339733566766,0.489145515839292,0.484713356704207,0.490642982178062,0.490375974471549,0.561849844377248,0.54172100987047,0.48778379866064,0.495380208402853,0.464712530061514,0.551620784828238,0.503877311918376,0.427437320761266,0.461005461901477,0.476486571753383
130,grasp,12m,OC,0.55037073769273,0.578115768116786,0.420423424432203,0.610592557650051,0.525909405452014,0.493050090186857,0.489293430739931,0.488327337103128,0.485026852444468,0.561903123123571,0.53961358498765,0.488168994395609,0.496106701593248,0.462009270973861,0.546343942286555,0.515285137562455,0.430745707042566,0.46410582055755,0.472560489859891
140,grasp,12m,OC,0.545788701845054,0.576425235187395,0.416680231828206,0.605725057980363,0.520398289078599,0.494039050638467,0.493099126664485,0.484826624258734,0.478894228319599,0.563510863920195,0.534076068887834,0.491025974359747,0.494994285131657,0.458360393044916,0.539633543264354,0.526282443491726,0.440511762538549,0.467940524916821,0.466648655674977
150,grasp,12m,OC,0.542208015067905,0.567997633091928,0.411979366962476,0.597179565733282,0.516083045785688,0.493229186687756,0.490716013426416,0.482019553530952,0.472259169626237,0.563955289329038,0.528576954746712,0.494807308406121,0.493449522876556,0.454290171282349,0.533138251535614,0.535678533010041,0.452039861753971,0.474234037162906,0.462072991067678
160,grasp,12m,OC,0.538634378417737,0.55829297407288,0.408817806261391,0.588761449935944,0.512186355037417,0.492473847742387,0.486295585423598,0.482314703406011,0.462914357219019,0.559014003763399,0.523567402949457,0.497478231064595,0.494033171052559,0.450349008731181,0.529367494087209,0.54458289391087,0.466042895677654,0.481492275146915,0.457388406622708
170,grasp,12m,OC,0.536495121255319,0.549784315241493,0.409281502396501,0.584627545661044,0.50814061329366,0.490118497736514,0.479953364997834,0.487281378382527,0.45095782186389,0.550452208546706,0.522159058317763,0.498636556696221,0.49793822757718,0.448538574645498,0.529049225572426,0.551420615645227,0.480836611386901,0.487700590529805,0.453003392566677
180,grasp,12m,OC,0.536829387901681,0.540704583416954,0.413806514785605,0.583624519023465,0.503410104547781,0.488374846982585,0.475839917166386,0.494030035293204,0.438906971444049,0.541520677355451,0.523933534682795,0.499715236130725,0.503912594622198,0.449691957154545,0.532103250818782,0.552448882773783,0.493338289294254,0.493371899217208,0.44904742765012
190,grasp,12m,OC,0.536491873677105,0.531009230474619,0.419486876856518,0.581490609640499,0.498372286991546,0.489726413096349,0.477860992579862,0.501420077713632,0.429464241187391,0.536028040971995,0.528555932863648,0.50234039116914,0.51228669520123,0.4528529532511,0.536179075695949,0.549948806475647,0.501665996331982,0.499481716161303,0.446950548295712
200,grasp,12m,OC,0.532875061316446,0.52227608530127,0.424811156815182,0.577123512866154,0.496296213564276,0.49426957698505,0.485039023631049,0.510503808565286,0.424233091216539,0.53007437240432,0.533079198767956,0.507165907901306,0.518971890462671,0.456166666627938,0.537753951514706,0.547645669044048,0.508989996527363,0.505569692645023,0.446483753776055
210,grasp,12m,OC,0.527367969135966,0.517182182559592,0.429226619490723,0.571672570981361,0.497271876316899,0.499371793792046,0.496899036876176,0.51945954487136,0.424388885977865,0.524861315058888,0.534009358245297,0.512777182774682,0.52095901610411,0.456861476931927,0.537990404077181,0.549695409568041,0.516423840633711,0.510787385720139,0.446192145988261
220,grasp,12m,OC,0.52051843521376,0.513870351324451,0.430767564351065,0.566145442515669,0.499314667832881,0.505228022186006,0.508905439500505,0.524587816516575,0.430642595354239,0.521774918728729,0.531885805343073,0.518914456994063,0.5202863829002,0.45377306869129,0.538681732066521,0.553033753042381,0.52550513591211,0.515781894648201,0.445191274219705
230,grasp,12m,OC,0.513824729104082,0.511146007529544,0.430691852809339,0.559903887441114,0.500306378182928,0.512839908550139,0.5194048496704,0.525668728605176,0.440684787007735,0.521366186849043,0.524280558369524,0.524895065360604,0.517581532959423,0.448545129309579,0.539972803311503,0.552505059664219,0.533511719521974,0.521030720622512,0.443656153296336
240,grasp,12m,OC,0.509053383435988,0.509264720831353,0.429280706008058,0.551415324834442,0.500558750083204,0.522194765599175,0.526748759918639,0.523875211486292,0.45090633460836,0.521732501796831,0.510729852891788,0.532784932126408,0.511926094585904,0.44239048860192,0.541003324529129,0.555010973645849,0.539673655676567,0.526939523607413,0.441126564752092
250,grasp,12m,OC,0.507057860729569,0.507195347605237,0.425798799222002,0.540319248824562,0.499598373129426,0.53155963227199,0.52809972757667,0.521290975973617,0.460854660729533,0.521479795380274,0.49650726353151,0.541726376024607,0.503320706969387,0.437525888828012,0.541052272575437,0.558239076627163,0.544050453363257,0.532340787587107,0.438376446665975
260,grasp,12m,OC,0.506674451834681,0.50507326774741,0.420069356386457,0.527543355068678,0.496298258813586,0.541423061012956,0.525653752088919,0.522765788950266,0.472115225393778,0.519433409815786,0.485459416977499,0.550854720848856,0.492775014506383,0.436863173668442,0.542153705706202,0.557656572652188,0.54788554248697,0.537047968487243,0.436714313326166
270,grasp,12m,OC,0.504030278841012,0.502969632491796,0.413228919441678,0.514853387761382,0.491850497969519,0.549404445045873,0.520084842153142,0.529203218761182,0.483218667867292,0.516493711309119,0.47225060215383,0.555968922361315,0.484056241809671,0.440491347115657,0.544914147397656,0.553487755689373,0.552761622334971,0.53722257283585,0.433609199450093
280,grasp,12m,OC,0.49992858629607,0.500930799009374,0.408078432920683,0.505014378006896,0.487706448095823,0.556075161221137,0.51153943683108,0.538122346018513,0.494444400613555,0.51370075052193,0.454419102249557,0.557213564710637,0.478447784829479,0.445790009970838,0.546757496444337,0.547104838329682,0.557166242843226,0.531486642394049,0.429290146981315
290,grasp,12m,OC,0.495842494549313,0.497120005447549,0.405785104985983,0.497945379739511,0.487762650140785,0.559784077405022,0.502198615507262,0.545614592260168,0.505467491192157,0.512195229514103,0.435404877365919,0.556074700411789,0.476597845666019,0.45134634998312,0.544967852794731,0.536411192766383,0.559148069542579,0.522283096356867,0.425105488038126
300,grasp,12m,OC,0.491885422899641,0.493538554332321,0.407279786290255,0.490481335455612,0.492587763213782,0.558483799601768,0.498239742115042,0.550763518687018,0.513935171257808,0.510628045182017,0.418871080696592,0.554064409013255,0.478427006662851,0.454011765155849,0.54071523831784,0.521525747281207,0.556060635752401,0.511661633281181,0.421518632728503
310,grasp,12m,OC,0.489505522330634,0.492931304425169,0.415480133310648,0.480207503661637,0.499146252235471,0.554240327152844,0.504992807271361,0.554337461910947,0.517984996141509,0.50899971597234,0.404473377481204,0.55197154517146,0.481420482359962,0.454293573702537,0.535313043974232,0.503428134646388,0.548782946829254,0.504557878651728,0.418565931868735
320,grasp,12m,OC,0.488050179046308,0.495700084945721,0.424795707650212,0.467664284266022,0.504824736070312,0.545399060105197,0.52115405141214,0.554690513604878,0.516462368019738,0.506985011127197,0.394346098310662,0.551074920901656,0.48419900099341,0.453660065237201,0.528655221943538,0.486190161401878,0.538533839517267,0.499996599675889,0.417032746143066
