Time,Condition,Age,ChannelPair,TrialNum,connect_overtime_LA_EEG_12_P04_CTS_MTH_chanpair_12m.mat,connect_overtime_LA_EEG_12_P05_CTS_MTH_chanpair_12m.mat,connect_overtime_LA_EEG_12_P06_CTS_MTH_chanpair_12m.mat,connect_overtime_LA_EEG_12_P07_CTS_MTH_chanpair_12m.mat,connect_overtime_LA_EEG_12_P08_CTS_MTH_chanpair_12m.mat,connect_overtime_LA_EEG_12_P10_CTS_MTH_chanpair_12m.mat,connect_overtime_LA_EEG_12_P11_CTS_MTH_chanpair_12m.mat,connect_overtime_LA_EEG_12_P16_CTS_MTH_chanpair_12m.mat,connect_overtime_LA_EEG_12_P17_CTS_MTH_chanpair_12m.mat,connect_overtime_LA_EEG_12_P19_CTS_MTH_chanpair_12m.mat,connect_overtime_LA_EEG_12_P20_CTS_MTH_chanpair_12m.mat,connect_overtime_LA_EEG_12_P21_CTS_MTH_chanpair_12m.mat,connect_overtime_LA_EEG_12_P22_CTS_MTH_chanpair_12m.mat,connect_overtime_LA_EEG_12_P23_CTS_MTH_chanpair_12m.mat,connect_overtime_LA_EEG_12_P24_CTS_MTH_chanpair_12m.mat,connect_overtime_LA_EEG_12_P25_CTS_MTH_chanpair_12m.mat,connect_overtime_LA_EEG_12_P26_CTS_MTH_chanpair_12m.mat,connect_overtime_LA_EEG_12_P27_CTS_MTH_chanpair_12m.mat,connect_overtime_LA_EEG_12_P28_CTS_MTH_chanpair_12m.mat
-1000,cane,12m,OC,Trial1,0.504373900811828,0.550763669920803,0.541749004897157,0.527400163976387,0.317249632127157,0.468842922255306,0.404363183763513,0.529410214404847,0.474323772658133,0.51926056961632,0.534085367544373,0.662518825153503,0.580228130646911,0.48476009815904,0.814546911290429,0.576758792821947,0.752080304376881,0.664365877216726,0.485953307102151
-990,cane,12m,OC,Trial1,0.51319141901673,0.564720834843876,0.544535927094015,0.531705101057985,0.314821996678105,0.455587823466795,0.410689036018914,0.538255067144446,0.464838978268734,0.486277094101966,0.549383138758283,0.626579959896698,0.571179829750288,0.488528986855683,0.812913076322918,0.583783553643958,0.759351240733673,0.67870272576629,0.479584390949118
-980,cane,12m,OC,Trial1,0.522719750478822,0.581959627970939,0.549979068714105,0.534883751014317,0.314668817399095,0.441776630888584,0.42059367816253,0.549537500887649,0.457156487008961,0.454359169265623,0.56457699699659,0.589547833275851,0.563012079761323,0.495832774556201,0.810404279653199,0.593233149273174,0.762667719433779,0.691582541530927,0.468216955764688
-970,cane,12m,OC,Trial1,0.535214511592409,0.600502275857345,0.557257288280778,0.53806124279205,0.316803922936871,0.427633694125914,0.431670339918639,0.561770614994063,0.451163917739369,0.426416274325753,0.578963815881979,0.551677161101729,0.556467373528338,0.506273470883979,0.807407061712063,0.603836713413465,0.763100497065916,0.701594228152467,0.451968228163613
-960,cane,12m,OC,Trial1,0.550288984010435,0.619858285413918,0.56361749188244,0.540101910341527,0.321444493760809,0.413007726298488,0.443427247532228,0.572443774531328,0.446702743494531,0.403499384257954,0.590482514804546,0.513250038890223,0.551877011484821,0.519648029210764,0.804332157564499,0.615878913510524,0.762921125136279,0.707187394948062,0.431008780325003
-950,cane,12m,OC,Trial1,0.5679485902856,0.639639253906021,0.568646550072623,0.539760768642546,0.327424569247943,0.400628002877926,0.454632891052937,0.57981643280115,0.443614821702753,0.38786746684132,0.598003277942187,0.474607398560001,0.549218619580512,0.535757962393129,0.801532249696483,0.628624137879416,0.763158189623706,0.707722371973272,0.408994736726745
-940,cane,12m,OC,Trial1,0.588123435157252,0.658841863876909,0.570912823925025,0.539460378928544,0.334346129156075,0.393689078509465,0.464604482242222,0.583969784408379,0.441915271024166,0.379152476863768,0.601111006176174,0.436908438123629,0.548218686444692,0.5544159415065,0.799311959580882,0.641417058276945,0.764042669947416,0.70481058022001,0.387923606640343
-930,cane,12m,OC,Trial1,0.610463137221838,0.676610944943829,0.572670956159123,0.540572039700903,0.341317217290578,0.389717043677646,0.473735181061316,0.586267571006895,0.442104967820914,0.375578345235135,0.598139099062085,0.402097324941381,0.548347423536134,0.575450228836739,0.797910280450113,0.653828602254181,0.765539285643064,0.699560324765672,0.369638394362462
-920,cane,12m,OC,Trial1,0.63337375544996,0.691825469987573,0.573768491157578,0.543070948998059,0.347659377116846,0.386888971323671,0.482416990533963,0.590134121768229,0.444171063620314,0.376064576779546,0.587403627290827,0.369343112727501,0.549002168995937,0.598591133474451,0.797459908803774,0.665434491293785,0.767513467202236,0.692184823980454,0.356783004439729
-910,cane,12m,OC,Trial1,0.656973865638354,0.706476066852676,0.572579982569831,0.546607330493504,0.352226569455265,0.386725628156227,0.490928384313515,0.595570435772766,0.447376563126571,0.379629275068267,0.568880119426048,0.339547961555251,0.549584592955909,0.62299615767152,0.797974063964757,0.674748571974113,0.769767420299703,0.682924588778064,0.348661075451472
-900,cane,12m,OC,Trial1,0.676858314761725,0.720691445120526,0.569111151614924,0.55079980258368,0.35494338023754,0.389908554867371,0.499389773638318,0.601398410862875,0.451547189209566,0.385383082554582,0.544305369804517,0.314220414775091,0.549396738489029,0.647081383576069,0.799373748292422,0.682323870081571,0.772060592182266,0.669510445948937,0.342879526700382
-890,cane,12m,OC,Trial1,0.687893153432769,0.734557979579041,0.561228847302437,0.555462253267461,0.356993905892455,0.3962675256615,0.507505992364895,0.60464130864858,0.456789691080412,0.39260209737573,0.517157977116804,0.295806410823376,0.54757563380119,0.670216141360981,0.80153065398936,0.688329496819421,0.774143387015094,0.655179804601619,0.338942505299668
-880,cane,12m,OC,Trial1,0.691893647917519,0.747932923607012,0.550197423014418,0.560726137709675,0.359587736708037,0.405275885020245,0.51432140600767,0.600928765072397,0.463353060202958,0.400628286726988,0.489863901423643,0.284748717904595,0.543693059980925,0.689447220408388,0.804288355540118,0.693136325476725,0.775806967096457,0.640640958111562,0.330960224676394
-870,cane,12m,OC,Trial1,0.691167053589971,0.760485423705514,0.536694574049459,0.564754468977969,0.365751026182333,0.416958100684592,0.51878374157705,0.589188772501625,0.471762065171121,0.40895501198772,0.463485138946675,0.279883815412124,0.538452940673637,0.70605839318084,0.807462956757181,0.696923897164444,0.776920698007702,0.626048138541755,0.321741801517261
-860,cane,12m,OC,Trial1,0.686680820149977,0.770953215046848,0.521260069711609,0.56661731828233,0.373892514854001,0.431079299127375,0.520762009429905,0.571792004718328,0.482769924171142,0.416304321134119,0.439007188333847,0.279950708395868,0.532472740314576,0.720631401361665,0.810889649532538,0.699754588534652,0.777424293530815,0.611603043014633,0.312946104951685
-850,cane,12m,OC,Trial1,0.680911708414365,0.779151726351869,0.505588685512946,0.566790255374241,0.382415440639778,0.44726411385074,0.521959400340087,0.550002459381442,0.496907103397428,0.421302834472456,0.415018078417223,0.283535805282809,0.526706710014479,0.733006949265573,0.814514642985161,0.701021088340293,0.777292754471322,0.597663979378055,0.305287332861703
-840,cane,12m,OC,Trial1,0.675203476133056,0.786115455746652,0.491369467848083,0.565537549046314,0.390195056174257,0.464470638365689,0.52436524553181,0.525462877716567,0.514372397819029,0.425155901287933,0.394017397450703,0.289367580230827,0.519476186710897,0.742270690932178,0.818403383440936,0.69912744353538,0.776516782366529,0.584934635740134,0.29934490377363
-830,cane,12m,OC,Trial1,0.670041678923884,0.791750729042515,0.48034575979906,0.561179056472235,0.395980604420363,0.481271001581157,0.528075041599785,0.499300109616519,0.531850828323401,0.428860285718821,0.378064781631962,0.296974310882537,0.50955019797773,0.744696973664925,0.822587875624555,0.69409819087204,0.775113430023655,0.574335897931298,0.295699861903206
-820,cane,12m,OC,Trial1,0.66542578399377,0.794221986011372,0.473607852479342,0.555607613135922,0.400604504788659,0.496311814986333,0.533072596592954,0.474395725468646,0.547622262320766,0.433040730910843,0.365438524294806,0.306597167824988,0.495462068609916,0.74176850121499,0.826766334383868,0.6867839626607,0.773165208710434,0.566054312659902,0.294533102983311
-810,cane,12m,OC,Trial1,0.660282458074825,0.792566232207596,0.465040300651289,0.549144816534371,0.403249722432407,0.511327010520699,0.539778385577805,0.450445828717099,0.559070577877296,0.437852155056439,0.355310323527702,0.318468656162032,0.477381103825437,0.737373829281377,0.829897815155899,0.67804970443374,0.770882303704018,0.559692315174559,0.299003904237922
-800,cane,12m,OC,Trial1,0.652829452339388,0.790520985655473,0.45424134961625,0.542146613836981,0.405827389198937,0.526971928012059,0.546670299961941,0.428813657375107,0.56494900125579,0.443015445678855,0.347571856273582,0.332351987606063,0.45798792923084,0.732463250197968,0.831725125103149,0.670084601931125,0.768659743764883,0.555042323048974,0.306442863039646
-790,cane,12m,OC,Trial1,0.648791763916722,0.788124981472795,0.442384850212195,0.534936655826286,0.408657280099452,0.543409369923441,0.553610685895491,0.411529964996402,0.567993015527707,0.448385947015224,0.342235786333327,0.349810801402181,0.437914501401108,0.726866000679871,0.833053909289488,0.661651489178284,0.767060288653003,0.552049811814071,0.315751511927756
-780,cane,12m,OC,Trial1,0.646869397368941,0.784669983076349,0.431579590447331,0.527666515201712,0.415032461965532,0.560651441009378,0.558548265028403,0.398219031852588,0.5676615842864,0.454021894990864,0.33884227988267,0.367411242526302,0.418837170303904,0.722434313331794,0.834477836495067,0.652351687385807,0.766655373064919,0.549183247712372,0.32608769800404
-770,cane,12m,OC,Trial1,0.64527426236883,0.779631166668749,0.422689875040673,0.520234907537944,0.427807335822941,0.578285887879024,0.558260512669388,0.388367521663654,0.562741258434156,0.460140669337734,0.337344561061795,0.386022722962517,0.401038453676273,0.718725015620358,0.836247440679178,0.641614322429369,0.767775640869878,0.546300556254198,0.341846695440077
-760,cane,12m,OC,Trial1,0.643783726296058,0.772765275282708,0.41635064276623,0.512095950522107,0.446782037958113,0.59598215531753,0.555889325121185,0.381349879889592,0.555889428461012,0.467143570212331,0.341172143406657,0.407180352603393,0.384582576967371,0.715142844913177,0.838449284693095,0.629509742568541,0.770379358273163,0.543059618612343,0.357993905786969
-750,cane,12m,OC,Trial1,0.642279728535371,0.763967347793244,0.413215062998989,0.501754158546583,0.470808194871227,0.613267322939308,0.552499874812899,0.377090084880579,0.547503346778158,0.475627842329171,0.348131011858138,0.431197843950932,0.369396197155619,0.711135575758501,0.840952347773646,0.616086365278253,0.77413131742754,0.537832141743064,0.373814772415686
-740,cane,12m,OC,Trial1,0.640748563692609,0.753155569660253,0.415039264477738,0.489907727223359,0.49886269899973,0.628821387409509,0.547929781602669,0.374170571008403,0.536885808448172,0.486244016512453,0.359912520085894,0.45766372551958,0.355346425873601,0.706369402521352,0.843430792909811,0.60120913274847,0.778523051057355,0.528104622659704,0.389045287250811
-730,cane,12m,OC,Trial1,0.639573419645854,0.740196652623428,0.419745993713655,0.477405531094708,0.530159335425727,0.640855775528628,0.540644170703254,0.372430567687897,0.523939848274971,0.498646079886043,0.373283405339494,0.485563625063162,0.342288356564568,0.700771592370144,0.845583626637656,0.58531534412833,0.782894243959878,0.517666861903035,0.403500494845094
-720,cane,12m,OC,Trial1,0.638915426001764,0.725045102492907,0.427465048842323,0.467273718668651,0.563873866844932,0.644867733179654,0.528819072706607,0.371562034617847,0.509646992031649,0.511840836218989,0.385569174227557,0.513687261382412,0.33009710369297,0.694322131873989,0.847211778229503,0.570392848154547,0.786409297998397,0.507650741596195,0.417030119949566
-710,cane,12m,OC,Trial1,0.638377266558537,0.706207051681439,0.437130293673487,0.461275360315484,0.59914791894251,0.639954189160166,0.514437367860433,0.375694433379187,0.494903833069435,0.525146299143578,0.395304924577318,0.540636621712925,0.318700974840087,0.687020661733764,0.8477213188066,0.558287062189604,0.788519123576131,0.504477946943808,0.429547468985907
-700,cane,12m,OC,Trial1,0.638573368265872,0.683513368231201,0.44640612016623,0.46097773536354,0.635092057795996,0.631052749365438,0.498546059361653,0.380803848077227,0.480307331077937,0.538007625312575,0.401493325934414,0.565367946470315,0.308113363740483,0.679076039401149,0.84665468274698,0.549075063874037,0.789347682151755,0.502315423793776,0.441048818463122
-690,cane,12m,OC,Trial1,0.637865178759574,0.659808932898516,0.454368210602605,0.465864249511469,0.670592319717998,0.620689862399092,0.482034622321576,0.387655465564746,0.466435065069217,0.549701905453785,0.403445545999066,0.587683087241846,0.298508683439327,0.670270321502423,0.842895013523065,0.543223680494678,0.789092590608348,0.500899587496331,0.451496037700904
-680,cane,12m,OC,Trial1,0.636879615225575,0.634363500617349,0.460622316797223,0.476462050366985,0.705232665694386,0.609677965949377,0.465715293150726,0.396616417205376,0.453990627720878,0.559747655292934,0.400288516795722,0.607510367934817,0.289363047221545,0.660931365551182,0.835837628533069,0.54248242823108,0.787867315019022,0.499895025532291,0.460679389268906
-670,cane,12m,OC,Trial1,0.63557043582441,0.610289007586327,0.464969628574831,0.48920832236798,0.739028428457495,0.598223612240355,0.450308878961183,0.406078484439873,0.443964082400636,0.568226894717555,0.393476125460196,0.622281035625512,0.281266936820989,0.652284678014315,0.826848453584008,0.545106314029798,0.785874094901508,0.499298421286673,0.468386359403936
-660,cane,12m,OC,Trial1,0.633399039835653,0.589432744126276,0.467278992896496,0.503138686908785,0.769748024387959,0.586395501241304,0.436744531737078,0.41358905842729,0.437642753481611,0.575448085785506,0.387291137973095,0.633319501300785,0.277985788531592,0.64404916333601,0.816414527390787,0.550216771472086,0.783392531769336,0.499254127001169,0.47488581651951
-650,cane,12m,OC,Trial1,0.629367891825512,0.571559550097265,0.467429830640891,0.518112469939737,0.795055455897705,0.574250563337152,0.426258593257689,0.419609050939193,0.433279747166272,0.581802395422777,0.384105950023312,0.641441884726222,0.278663943743213,0.636502189990374,0.804848431156935,0.557528569874185,0.780525948242749,0.499439588768367,0.479150481981343
-640,cane,12m,OC,Trial1,0.621845691503261,0.555065253698206,0.465299830222481,0.533867289856047,0.811873150383844,0.561659423449515,0.420978385980927,0.424275732018399,0.430117217046215,0.587835445801386,0.384286155751169,0.647607564491112,0.2821492783183,0.630203437282874,0.792391555939808,0.566715114005325,0.777250250473801,0.500473201307273,0.481676571078165
-630,cane,12m,OC,Trial1,0.613016087844575,0.539237641798739,0.460819980990566,0.550049618821153,0.820074541300262,0.548431209708798,0.417516904503733,0.426864201659754,0.428791537716697,0.594192945140339,0.387000048984226,0.652229170010486,0.287730219638732,0.62452123760646,0.779100530190868,0.577366023936621,0.773455656786583,0.503862912764433,0.483671331748186
-620,cane,12m,OC,Trial1,0.604468973269685,0.524360985833634,0.454061903912936,0.566064360723315,0.822439676677896,0.534633016444506,0.413324575227534,0.426979775000086,0.429066169165513,0.600517249449512,0.391405460379344,0.655772274440837,0.29486832711334,0.620050304516124,0.765150249754221,0.58895638091491,0.76896838478802,0.512937818042681,0.48583786753061
-610,cane,12m,OC,Trial1,0.597503467689601,0.509047819885817,0.445335749079653,0.58106742878917,0.820790032086737,0.52044348971847,0.413967458471825,0.422550850195957,0.430515277037951,0.60464066942142,0.396614226687653,0.658810308643199,0.30260526096561,0.616285047174473,0.750841618322352,0.600842144488041,0.763641856186895,0.525705247718344,0.487747363572909
-600,cane,12m,OC,Trial1,0.593631147848031,0.495886537118053,0.435347593039724,0.593982546631123,0.817060743161382,0.506769208166928,0.421131657637287,0.417573448648532,0.435363189321176,0.606010148806473,0.401754425631669,0.661201444335235,0.310371897718296,0.610831893702969,0.736419885824496,0.612271583956135,0.757399820962131,0.541505233847711,0.490135695993474
-590,cane,12m,OC,Trial1,0.593623308735619,0.484525108573873,0.424979645626932,0.605881692058722,0.812294637829148,0.49533310131743,0.434080520397498,0.411992372438405,0.443185888591777,0.603410131674592,0.406092388256018,0.661937053657576,0.32149712117279,0.603620158360046,0.722097495283525,0.622518176584734,0.750230165991117,0.559965697184269,0.492439299042108
-580,cane,12m,OC,Trial1,0.596505262893429,0.475084033305928,0.416436722768462,0.616554068556311,0.807079243215912,0.486672236181198,0.449346742662524,0.40720888890373,0.452970207853024,0.595382267258118,0.409092348382505,0.659717141291933,0.336933172451226,0.594982320973435,0.708076537528748,0.630541544070191,0.742161226922824,0.579969473010801,0.49208210087451
-570,cane,12m,OC,Trial1,0.600629712812536,0.467752918222467,0.410309408706357,0.624178644315307,0.801764906052245,0.480243855662319,0.464688021807368,0.404731488099086,0.463109757843238,0.583741394788121,0.410455990972084,0.655376440948256,0.354734984378412,0.585729209345188,0.694559601162657,0.63551653395119,0.733124254028374,0.599937818132236,0.488479776084618
-560,cane,12m,OC,Trial1,0.604681216783801,0.462636884702723,0.407261556841233,0.626877377936463,0.796558533984334,0.476753566076658,0.478154892051757,0.406035426589287,0.472685423494328,0.568020000722291,0.410142283219121,0.649241557571793,0.374986694712715,0.578861324608947,0.681754930273363,0.639270394010402,0.722637933350325,0.615773338807814,0.484708393460764
-550,cane,12m,OC,Trial1,0.607570118857842,0.459738296219882,0.40569960323035,0.623020871942637,0.791577645610522,0.477220447704467,0.48805559510119,0.412297345894206,0.479739100194192,0.548177159239927,0.408347073940789,0.641135498310194,0.396014652919652,0.574097976463585,0.669864751165904,0.641455663418609,0.709811125924591,0.628905596779839,0.480751427801784
-540,cane,12m,OC,Trial1,0.607478508939054,0.458942254235926,0.407251400745672,0.612729919690732,0.786889774464622,0.482940500428764,0.495109176560879,0.422814500550685,0.482133737838967,0.523572962443194,0.405476145598552,0.63088628044415,0.416943623649383,0.570504396066177,0.659047020180054,0.641075114293917,0.69822392432847,0.640085524898576,0.476306298431104
-530,cane,12m,OC,Trial1,0.601120395073251,0.460013433091448,0.411164365859863,0.599989122186638,0.782540459332485,0.495038008285587,0.501293795941833,0.430711285019067,0.477526582257805,0.495953366070876,0.402002291562069,0.618363462432516,0.43615366694529,0.567708745936211,0.649350032421062,0.635780467500652,0.689678778839075,0.649773353976855,0.473637436717093
-520,cane,12m,OC,Trial1,0.591683955660153,0.46258967684451,0.416957319211463,0.585995521430838,0.778569732877444,0.511688023622191,0.506902660020542,0.434588396128069,0.470585416446773,0.466628656574812,0.397867098429834,0.60417571973361,0.453636838618611,0.565850439393801,0.640576288878101,0.626293495732956,0.686903145426822,0.658039450477114,0.472982363758945
-510,cane,12m,OC,Trial1,0.579151509755026,0.466159193330707,0.424616589190923,0.569950295265327,0.775021427440829,0.530092165442072,0.512142771246429,0.433696528298669,0.462741432986157,0.436521075175667,0.393346713675123,0.589264460523012,0.467099475768947,0.565101001322227,0.63177938865898,0.612151870952753,0.689324160786059,0.664703290292181,0.474719753887025
-500,cane,12m,OC,Trial1,0.564067997819035,0.470019639882126,0.433341361552182,0.552041159869858,0.771952510332591,0.54700187525711,0.51702303914477,0.428902022482597,0.454697261087735,0.406257815682626,0.384805383348157,0.575299437647806,0.478791284137022,0.565677630728147,0.620475528177056,0.595479521039908,0.693334384401781,0.66867011129743,0.479008703281418
-490,cane,12m,OC,Trial1,0.546538658011531,0.473308122345304,0.442955135154986,0.532657268024307,0.769445784613286,0.55797639774098,0.521331266735041,0.421481364370348,0.447195304556075,0.376416354838075,0.377383402132556,0.560712878167233,0.488656127309902,0.567858460342545,0.606578413543248,0.578366260196569,0.697189255965172,0.666878752396711,0.485456277119303
-480,cane,12m,OC,Trial1,0.526754242290005,0.473552499436951,0.451604203789388,0.512869020057413,0.767654818113432,0.564690875804377,0.524610012736566,0.4118754274077,0.441058062788978,0.347934523396735,0.368421931783823,0.544037808614764,0.497259024240953,0.571966864306188,0.592354745818248,0.561506393106953,0.6993062550697,0.661856591518491,0.492954484506667
-470,cane,12m,OC,Trial1,0.506648623453051,0.46938407191498,0.458101142111132,0.493202335346229,0.766921402598998,0.56928602705202,0.526128568059185,0.401563798741359,0.437138790988152,0.321284190109953,0.357691689390946,0.526863682285796,0.504217291212838,0.578321834352591,0.578628140589176,0.545055815403421,0.699150038581734,0.653389459678028,0.497572494768064
-460,cane,12m,OC,Trial1,0.487619281700613,0.460226167951635,0.462649709295761,0.47459503497732,0.766503197169175,0.572498433995615,0.524052011019637,0.390946610522553,0.436101891591826,0.296616889824967,0.34752485128969,0.510683089952254,0.508615116825373,0.587169355588608,0.565786910740849,0.528710964352181,0.696668892380158,0.642203445611698,0.499930336192734
-450,cane,12m,OC,Trial1,0.469870921775787,0.448290553671133,0.468311049525928,0.459392567346449,0.767650510501075,0.575109080361121,0.52052581641426,0.380269098244966,0.437959012213418,0.274064375178531,0.339627323743423,0.496003644055311,0.510661390548026,0.598619179746983,0.554082558210776,0.511915528773008,0.69184790194754,0.629711566727315,0.499496001377765
-440,cane,12m,OC,Trial1,0.454352749071942,0.435612092737979,0.475767111824626,0.449823948699465,0.770360270647622,0.577490736011906,0.5197344238304,0.367970971468101,0.442045353852314,0.255695809814323,0.336321238491953,0.48349439407745,0.509043666268827,0.612631363603353,0.54378916360332,0.494497366930497,0.68510384799303,0.616473380484347,0.499280357868966
-430,cane,12m,OC,Trial1,0.441324872305422,0.423121316553456,0.483568294630017,0.443525010947258,0.77474023678586,0.579575217092576,0.520143771614746,0.355934853777548,0.448913236659474,0.239331602281383,0.339169001025831,0.474024987939277,0.506691228543375,0.629079651038145,0.535194638727862,0.476469134772472,0.676809321439432,0.602939244331216,0.499497272470071
-420,cane,12m,OC,Trial1,0.431222252011893,0.411349740644791,0.491038369680633,0.440297104807831,0.779330279306707,0.58086448209103,0.521322949797063,0.34327675963632,0.458743192023968,0.224041353542158,0.345577401029059,0.469095582599238,0.504732000743983,0.646347212758184,0.528479104859276,0.457250297794679,0.667277034951183,0.589542667929426,0.500262073795177
-410,cane,12m,OC,Trial1,0.424003675981449,0.402052003158763,0.499421603416615,0.43943216662914,0.784319218968549,0.582184523174655,0.523145974174891,0.328742368798364,0.470824190507051,0.209921015509051,0.357381048917783,0.467403816051047,0.501403014256981,0.661584660024305,0.523574487342032,0.438693735094772,0.656829406115272,0.576710301114831,0.501676042112515
-400,cane,12m,OC,Trial1,0.417255994188366,0.397330097768552,0.507914436209897,0.440364866930272,0.789600762491695,0.583740061774194,0.525730509454422,0.314616724758128,0.484249278018295,0.198351614618096,0.37434661344888,0.46868398389075,0.498183612430045,0.675395186640225,0.520091667689206,0.422297292659156,0.645834017042379,0.56486007034679,0.503820601557409
-390,cane,12m,OC,Trial1,0.410107089298002,0.398321004216488,0.51389288963052,0.442800803217304,0.7952110570889,0.585002159625681,0.529240627721635,0.30036873412316,0.497837229424275,0.193762237742322,0.393532172376221,0.472731469951536,0.498836049544932,0.686405735229229,0.517366887033698,0.408743249964856,0.634721435767735,0.554377890716389,0.506697972493644
-380,cane,12m,OC,Trial1,0.401730272814663,0.407116528938512,0.518901287498821,0.447392968988761,0.8011808260943,0.585632033183251,0.53368998840368,0.287891786211899,0.512592147491186,0.195844015084844,0.412374724693486,0.477895051052879,0.502457953162657,0.692627318147176,0.514605891031142,0.399015826137673,0.624149929449768,0.545548428552991,0.510242566972355
-370,cane,12m,OC,Trial1,0.390800596918652,0.421662920573946,0.525654096053577,0.454573934298047,0.807502317871884,0.585811860695943,0.538780052879672,0.277699277519287,0.528834584167667,0.200483324851474,0.428791842718197,0.483183454570545,0.510521264850957,0.694333853104521,0.511021774251835,0.39089160385053,0.615365289608677,0.538435832997816,0.514390770434849
-360,cane,12m,OC,Trial1,0.377860897320118,0.438918221299613,0.534141339961902,0.462038208691243,0.814166834816245,0.585075931362674,0.543883906995111,0.269921770905315,0.543992098636098,0.208801615642587,0.43792297050501,0.489405577144691,0.522003302361642,0.693803920438802,0.505792206674601,0.382551178283402,0.609327280608093,0.53282641178687,0.519130703262461
-350,cane,12m,OC,Trial1,0.364296668396595,0.457207185136442,0.54392171681752,0.469613580348813,0.821173024601839,0.582303883852468,0.548085705421715,0.264091380576099,0.554222537232465,0.222570888041521,0.442686799634656,0.497313043813704,0.535519500932701,0.691369440714219,0.49721757341192,0.375912908468235,0.605784975876606,0.528282289815517,0.52440806680892
-340,cane,12m,OC,Trial1,0.350600775049678,0.475458967704394,0.554287237422844,0.476985302173373,0.828521081013974,0.578271822427898,0.550124211554856,0.259120809009319,0.561807407817845,0.240511668093715,0.444540413784847,0.505637153380627,0.549827142779114,0.686817363968906,0.484182287993472,0.371855631577904,0.603615472860362,0.523187620681148,0.529920709596673
-330,cane,12m,OC,Trial1,0.337186460336862,0.492809531897078,0.56470716230014,0.483384167015112,0.836201587176168,0.574701684008207,0.546539585720882,0.253723268205333,0.566810257016789,0.26156712685742,0.44121755176789,0.510364812905333,0.563750843399018,0.680823214433506,0.470085550685528,0.371168723600043,0.602370689038849,0.518707624956766,0.535616313612292
-320,cane,12m,OC,Trial1,0.324467562124565,0.508512021313461,0.573595361656409,0.490719213527408,0.844184359600121,0.571701161588721,0.537566930373893,0.24731899918557,0.569988700879706,0.28509057259819,0.43569849406571,0.511281039884987,0.576386155937729,0.674817206430663,0.455657611029202,0.375952940502422,0.601720078677662,0.515638063283883,0.541758945676892
-310,cane,12m,OC,Trial1,0.31297295108185,0.522041557833199,0.578705455328623,0.499531505387287,0.852409857677411,0.569017999666937,0.526734475377699,0.239797470055016,0.570372029444536,0.310577977349284,0.428206253329325,0.510769123222828,0.585835517872934,0.669276619258055,0.441424220267668,0.383721185282714,0.601448236576839,0.513377675708563,0.54830697660814
-300,cane,12m,OC,Trial1,0.304087014641757,0.532882069269689,0.580687589863188,0.510383933041211,0.860782020368847,0.566809220156777,0.514646453182207,0.22997236107559,0.567451530898895,0.337616465458202,0.419023357845395,0.509891653321675,0.59425691009753,0.663715845440762,0.427602121248386,0.390223325315512,0.601454033802873,0.512777152004559,0.555225910313216
-290,cane,12m,OC,Trial1,0.298623934579933,0.541227225864312,0.579984530146197,0.523303290790293,0.869156914883288,0.565922642895252,0.501265334707957,0.216971704080243,0.562241604684292,0.366023791408486,0.408861586972112,0.508747618391579,0.601920525286625,0.656814318108103,0.414906216767421,0.393800272725056,0.60173105402311,0.514541800927757,0.56229875521168
-280,cane,12m,OC,Trial1,0.296558163213669,0.546175384278328,0.57688320137634,0.53913173317388,0.877294886084565,0.573108957123795,0.48702150005639,0.203110677349529,0.554151081758069,0.395320700368151,0.397976151662069,0.507352213331906,0.607618053768176,0.649093373062382,0.406762912300675,0.393960733733614,0.602322448691497,0.519139725482055,0.567969793700443
-270,cane,12m,OC,Trial1,0.295911011130515,0.545204116181747,0.571794854580287,0.554549737001268,0.884242880347511,0.586990326206703,0.473412376685851,0.189328261798383,0.544008800540054,0.4247529484859,0.386447597257942,0.50582259889855,0.611492542718988,0.639311538745151,0.403705594527638,0.392411447011012,0.602814252022293,0.526250342404898,0.574204601501636
-260,cane,12m,OC,Trial1,0.292115029034093,0.538567761382914,0.564885314773422,0.566384281574895,0.890384352278754,0.604261764889239,0.461099307958549,0.175967526616052,0.534277912661714,0.454548735319791,0.373735960408952,0.504381951462011,0.611359669840063,0.625526974082185,0.399552859009356,0.391511558442219,0.602048542644052,0.533000191417711,0.580670986151439
-250,cane,12m,OC,Trial1,0.284485057277087,0.528778518122547,0.555884625362074,0.575334298259048,0.895376280144174,0.623081425782002,0.449316983864009,0.166142189562108,0.524925186175093,0.483875058869309,0.359058238381714,0.503098654051166,0.607674454528539,0.606641589538644,0.391669511556477,0.392089413680234,0.600686026994769,0.539238846518437,0.587177741364228
-240,cane,12m,OC,Trial1,0.273781344152425,0.520135839521158,0.547139848623246,0.581604093751234,0.898153690677397,0.642580703835436,0.43831952394417,0.163465866195608,0.515176745364169,0.513221845670378,0.345576176987954,0.501752888918099,0.602856647200197,0.588833202260376,0.381391223390479,0.394892842459172,0.599030621549495,0.542854236412277,0.593701079919213
-230,cane,12m,OC,Trial1,0.261898508729486,0.513901313710544,0.539348064606926,0.58514966449453,0.897951565436876,0.661761317932449,0.42851632705287,0.167038315022785,0.503460433422805,0.542630447319056,0.337146919381174,0.500029830041284,0.599220374769058,0.572682331083776,0.370131648131859,0.400946813783472,0.597489172191403,0.544969122699086,0.600183525723032
-220,cane,12m,OC,Trial1,0.251712737103854,0.51000396233017,0.531904185594971,0.586111400168522,0.893700168078582,0.679383371637601,0.420595665632947,0.172668189119521,0.490330261091619,0.573596758414818,0.335047059984851,0.497617234468219,0.595047441219566,0.558208841257038,0.358827882548884,0.412037564237757,0.596374709296314,0.545833292339505,0.60613394812208
-210,cane,12m,OC,Trial1,0.245107814993313,0.507523252450993,0.524705823504989,0.584777844015106,0.885665795091525,0.694597685666336,0.415569434390034,0.180228029941482,0.476921733844496,0.606016771974571,0.337553450981938,0.494558547969284,0.589837579431274,0.546043784650928,0.347607500142181,0.427560245769037,0.596368782690788,0.545556842782153,0.610410005712983
-200,cane,12m,OC,Trial1,0.243198358208129,0.50523917537692,0.51714880405891,0.581301569108009,0.87484464470634,0.707323211665757,0.414832734564438,0.192526666061224,0.463844722001037,0.63782480428848,0.344245356197671,0.489284157791736,0.583496516404583,0.536553581501824,0.336434788116205,0.445779070338273,0.598931822482815,0.543451239533838,0.613886380824781
-190,cane,12m,OC,Trial1,0.251453571566764,0.501994848191558,0.508843303744324,0.576702772845913,0.861288277556393,0.717760770393043,0.416978965401917,0.209545666013447,0.451712049987938,0.668183095014477,0.35452419411261,0.484255017961774,0.575372130616285,0.529840654892831,0.325262475990304,0.465905445383021,0.603318497782659,0.538897245066464,0.61679405964013
-180,cane,12m,OC,Trial1,0.267223969074386,0.494618285916967,0.499962664565893,0.571336847451865,0.84424367136795,0.72590133211169,0.419695155184148,0.229733871955016,0.440891165131657,0.696644088249964,0.367386024538053,0.480431398581463,0.565556281348349,0.525752551769765,0.314096088785359,0.487517997708427,0.609360200955603,0.534345248578946,0.618744037685876
-170,cane,12m,OC,Trial1,0.285478510509086,0.482120947307028,0.495648869769806,0.56530175278924,0.825037931391621,0.729701030872576,0.424277753541041,0.252432467042639,0.431443878665564,0.722860211990688,0.381681344823184,0.478111649038939,0.554869025019805,0.523934835711295,0.303079255017679,0.51038835453272,0.617104479874968,0.530839438402121,0.618380955592291
-160,cane,12m,OC,Trial1,0.304977914759458,0.467947188020011,0.497261529186876,0.558455880152332,0.806378608494316,0.730389503665969,0.42951313347844,0.276703895294891,0.423150926692728,0.746498838244435,0.396265629481779,0.477393655764576,0.543634500795909,0.524943822866634,0.292613871517473,0.534505278476945,0.626615292354725,0.528383019156507,0.616694064123905
-150,cane,12m,OC,Trial1,0.324747978547546,0.453287932902888,0.503649190947163,0.550190135714438,0.788408017958666,0.730484083651836,0.434824714033774,0.301306771007621,0.415578400564583,0.767189281230024,0.410105366860732,0.478128646271066,0.532138913000558,0.526213756981984,0.28349480173,0.56008950124601,0.637837787967558,0.526589075269212,0.612953990177261
-140,cane,12m,OC,Trial1,0.344405493313629,0.438948036970376,0.510442472536844,0.537575082335861,0.771613223372211,0.731557358716583,0.441590119931027,0.325146134945991,0.408265368701954,0.784447338205019,0.422414674432615,0.479572664927263,0.520656064941721,0.527275419662801,0.277385830076444,0.587255108179875,0.650562652341657,0.524624431257316,0.607467162800502
-130,cane,12m,OC,Trial1,0.36373548011891,0.42533044783336,0.515759040295802,0.523341409880733,0.757587812349962,0.734054137266511,0.449867565545602,0.34779835966732,0.400474595280057,0.797495270827932,0.43273141818803,0.480662989740801,0.509431754113809,0.526330281734616,0.276943898944009,0.615533783503273,0.66443772354725,0.521042815438244,0.59875525648141
-120,cane,12m,OC,Trial1,0.382458211433114,0.412494852980382,0.517848884821713,0.509281466851819,0.748375880598679,0.734445771337073,0.459577342455548,0.368237476818158,0.394581634751805,0.804853428273858,0.440594146487177,0.481206314961673,0.498767166883351,0.521562962023812,0.280994072219916,0.643814499280898,0.678641002840086,0.513540227739905,0.587551084115877
-110,cane,12m,OC,Trial1,0.400083295213622,0.400284144745627,0.518081660095196,0.49537637086626,0.743282273731026,0.732173724858224,0.470993038872447,0.388090961550196,0.390122912353724,0.803985356236073,0.44649589778752,0.481510256917449,0.489162068735229,0.513544895900989,0.287875886579506,0.670169485859117,0.692166533079787,0.504368466166806,0.575161357738484
-100,cane,12m,OC,Trial1,0.415602051115981,0.38841909853691,0.516798444203409,0.482813395782026,0.740672830228136,0.727173362722181,0.480961988905656,0.406755332306725,0.38731171242184,0.79672392780341,0.453807620540638,0.482311522748134,0.481479186561734,0.503372859977758,0.296860183206282,0.690287300643228,0.70462380694006,0.492412496562265,0.562128107857652
-90,cane,12m,OC,Trial1,0.428117587998455,0.376566988931525,0.514403745134955,0.472999718488943,0.73931048602593,0.718712504618978,0.487949895920492,0.423803717539998,0.385408999663949,0.784644432786508,0.463173955131704,0.4842973464468,0.477566897025686,0.492717921465265,0.307214973573061,0.703602308115043,0.714682931312145,0.478398364906844,0.54869608537889
-80,cane,12m,OC,Trial1,0.438109327130645,0.364425106405551,0.51124109408081,0.468025144063922,0.738592826328605,0.708898953769754,0.491704782638769,0.437785434753001,0.38493814162373,0.770892509506964,0.473711358601991,0.48781074208663,0.479751814947059,0.484341955670801,0.31838484867586,0.710940402973327,0.721987841995863,0.464802133340274,0.534946973304317
-70,cane,12m,OC,Trial1,0.446548380727781,0.351921174902153,0.507595898815624,0.465383333185006,0.737895588994122,0.698653089395911,0.492560729426718,0.445451752280439,0.385820550627218,0.757867093283758,0.484543839929668,0.494270204108374,0.487130970358276,0.477560777277528,0.329130888432391,0.714060572692104,0.726297641487558,0.452322708563752,0.520843341320907
-60,cane,12m,OC,Trial1,0.45330378807769,0.339113863000829,0.503709496603126,0.464829107635725,0.736818015751262,0.688234802485712,0.490078683244778,0.446863291684581,0.387545821146285,0.746279154001814,0.494789608927795,0.503645907863394,0.498542225613625,0.472246989023718,0.339504086837101,0.712025103247542,0.727354669137077,0.440884731259425,0.506224493903087
-50,cane,12m,OC,Trial1,0.458158138032921,0.325706905315583,0.499804261891356,0.465985489592884,0.735272451615003,0.677722491394835,0.480778843852797,0.445384570235345,0.388925868246081,0.736279092756125,0.505787149412371,0.510180675036344,0.512342125784023,0.469090748147734,0.351765923485241,0.706932846297706,0.724569005411293,0.429463339365367,0.490760630202859
-40,cane,12m,OC,Trial1,0.460537527032117,0.31123300259891,0.496099858319527,0.466397990108866,0.733333855455054,0.667617274467554,0.468835900754186,0.442100002106984,0.387410740284056,0.727890324657044,0.519338041304747,0.512513499347602,0.52736861540456,0.466630365428772,0.366428384099096,0.699379205843584,0.717833959483296,0.416361874732427,0.47388437509998
-30,cane,12m,OC,Trial1,0.461888699359077,0.294591773812701,0.492804165906163,0.465505236127318,0.731110715204004,0.658667366491946,0.456659359302176,0.442857405623691,0.383362474604922,0.721129029305856,0.536399684570616,0.512675545231502,0.542714592597483,0.463797138973952,0.383074871845433,0.687450098587939,0.706871957701863,0.401996953229359,0.45465959262899
-20,cane,12m,OC,Trial1,0.462602308823507,0.279880897438669,0.490092909747777,0.464164520261837,0.728682017735121,0.649781334758475,0.446105805851607,0.448414696015649,0.378507495896343,0.716050471298964,0.555006928918064,0.511645263673949,0.55846979565946,0.460410481887721,0.401234981587486,0.671215627826601,0.693178530735546,0.389742252215588,0.429793349618368
-10,cane,12m,OC,Trial1,0.462521563416606,0.269816307385861,0.488086958380866,0.46202778934983,0.726070541295004,0.640239729474318,0.440267686337874,0.456243128011968,0.373915337412573,0.712731411217767,0.571313757555374,0.507851905045066,0.572960744574565,0.456349089004786,0.420496748869367,0.654400879862809,0.678409304066323,0.381562494266056,0.400518011831623
0,cane,12m,OC,Trial1,0.461397335044872,0.265485982362887,0.486744751588694,0.457450693008806,0.72323513106222,0.629361104005364,0.436707964599505,0.465479978639604,0.372320135486184,0.711168920792876,0.583283439843274,0.506485832735261,0.587994972761111,0.45125344952822,0.440523781681541,0.637637288457868,0.663179440611833,0.377796134415471,0.370971701249107
10,cane,12m,OC,Trial1,0.460533585028445,0.265781650397965,0.485683493297419,0.452257991884456,0.720074365200414,0.616449804135664,0.436188306665628,0.477267898181665,0.37674873653831,0.711149158781608,0.5917736674427,0.506746240560163,0.6036090815616,0.444945854536932,0.461007993756371,0.621641145153692,0.648078846675354,0.377625017677832,0.342137358095661
20,cane,12m,OC,Trial1,0.460285479118783,0.273960643376771,0.48434318660968,0.446377802752763,0.716435958032193,0.599345772027622,0.436123180796417,0.489609802112825,0.383331017949569,0.712199192537252,0.595803757154998,0.508524544388621,0.619718453779683,0.437444576136153,0.481644721418155,0.60754611827943,0.633576910816617,0.379882614801947,0.313712495588556
30,cane,12m,OC,Trial1,0.460826538528116,0.283091508767082,0.479697539255505,0.439714035229798,0.712126537920266,0.580978767562058,0.436423334855594,0.501641068545432,0.390558229174825,0.713673300451183,0.594819739542619,0.511754673637031,0.636118472597152,0.428294195340798,0.502189163636834,0.596115593383465,0.620001200918657,0.383391305382216,0.287236893829723
40,cane,12m,OC,Trial1,0.462378487424838,0.293930007046224,0.472919820150904,0.432048153833507,0.706917356150549,0.561441113977553,0.437179351551208,0.513394290487842,0.397739920739571,0.715172638409511,0.587999031549763,0.516299816192182,0.652463845621495,0.419847779909347,0.522475103239472,0.587543745015439,0.607545747174786,0.386175826820316,0.26441677546906
50,cane,12m,OC,Trial1,0.465179918573549,0.304555899830142,0.46422712824265,0.422238356914138,0.700541444230725,0.542030788209905,0.438447239091463,0.525091768177047,0.404692554378338,0.716677986460895,0.578580334561408,0.521982912280632,0.667980237749519,0.410978553255673,0.542320661809605,0.581830702699154,0.595954960871342,0.388039641701151,0.248115287012826
60,cane,12m,OC,Trial1,0.469610819854623,0.314304039207515,0.45629085625877,0.410517338413389,0.692674966606215,0.524854579296723,0.44015495152761,0.537020505680194,0.411745181533505,0.71820189785789,0.567320907001381,0.528430412854498,0.679749230041249,0.402210379410705,0.559475734841193,0.578907832495701,0.584255933698283,0.389674382002644,0.239267856504691
70,cane,12m,OC,Trial1,0.475692544997699,0.322786591320716,0.45248571205204,0.398089373955294,0.682931912889476,0.511351167544637,0.442056127380957,0.549469991986142,0.419742080108415,0.71963221346777,0.554602191627659,0.53467916726486,0.689771007916474,0.394155712272079,0.573564076085916,0.578768338010472,0.573773670145125,0.392214747343812,0.241390672608071
80,cane,12m,OC,Trial1,0.48099391001001,0.331263717302072,0.450686308616462,0.385493317199364,0.671040749344463,0.500843103209556,0.443834927310843,0.562710671034602,0.428222607306247,0.720731418346777,0.540544406072538,0.538837594688936,0.698372701866694,0.387206101298337,0.586570641061902,0.58144770738578,0.56754151629142,0.396839508909553,0.248283651407811
90,cane,12m,OC,Trial1,0.485169261431337,0.340191084159515,0.449059510921922,0.37296705980375,0.65705634176089,0.48929284146602,0.445335022602613,0.576978971833636,0.437439681440801,0.72116540762212,0.524901289484017,0.542004941732381,0.705910893343643,0.381748343341294,0.599439997564035,0.586901303759055,0.560829953600983,0.405913917964743,0.255718155651661
100,cane,12m,OC,Trial1,0.489408584415539,0.350309524639611,0.448313806331255,0.360694980196741,0.641208261371214,0.480696612910726,0.446296419829476,0.59245083465454,0.448668235382193,0.720313685647514,0.506971415888688,0.546046419555524,0.712482439607202,0.37832602597995,0.612523092661886,0.594932598141374,0.553500951530239,0.423227418459473,0.26025750473878
110,cane,12m,OC,Trial1,0.494099130337969,0.363082073623331,0.449228481540329,0.348879941167257,0.623757214791235,0.476321183078993,0.445059011554568,0.609201065359241,0.463262943291756,0.716387926326091,0.485062696765812,0.551724007674781,0.718241909664235,0.377372332634213,0.625919393897481,0.60500168089963,0.545622589015389,0.44465001415645,0.264314296995819
120,cane,12m,OC,Trial1,0.499220565648393,0.377954938126225,0.452733373821935,0.338256348839215,0.605127906561602,0.473663376846662,0.441299292107735,0.627157319018212,0.480448823443968,0.711026441519857,0.459367800647217,0.559695972175649,0.721932807349509,0.378743418044596,0.639555824294997,0.614505336849742,0.536956885666113,0.467099451409359,0.268853003000878
130,cane,12m,OC,Trial1,0.504619467166151,0.392557663269595,0.455920607225755,0.333094697862123,0.585808892474926,0.472753598002983,0.433064104346217,0.646058664946487,0.496671046581014,0.705812216878521,0.432563661968665,0.570402623870822,0.724698394233429,0.381758399039779,0.653245286060607,0.618949766205388,0.529220357142351,0.488670651837135,0.273792681357708
140,cane,12m,OC,Trial1,0.510329572559312,0.406049447257164,0.458110435488992,0.329791230292714,0.56602068571484,0.474361046685675,0.423423681310478,0.665409915970144,0.51104883894683,0.701149834684421,0.405611868313992,0.583879680782247,0.727480057320435,0.386181691848947,0.666731851585472,0.619922730844527,0.524149035358343,0.508561641210314,0.278995783775138
150,cane,12m,OC,Trial1,0.514715739621983,0.417231102406775,0.459822744817405,0.327187944677493,0.545973508495574,0.481970621530362,0.413733606410257,0.684465353331278,0.521991182444541,0.694255499424376,0.379094682838823,0.59968052494274,0.728844714611632,0.391193962429017,0.679631366896656,0.614681520451341,0.522240810366504,0.52706350376673,0.283434200522615
160,cane,12m,OC,Trial1,0.516973668888142,0.426360969856907,0.461496500292407,0.32410077087408,0.525954722490217,0.493316118030437,0.404410457924062,0.701460725427137,0.530434779265255,0.686484636011964,0.353460958523492,0.61722717291298,0.726184140405153,0.394922060669425,0.690934234607315,0.605404319531143,0.523782425637348,0.544747690073464,0.288308446123978
170,cane,12m,OC,Trial1,0.516988103110127,0.434382790959663,0.463590521734325,0.321030930118788,0.506305362822711,0.506544292533356,0.395488606902933,0.713483918363605,0.536734178595115,0.678157476494314,0.329410877700707,0.636058142206038,0.719751737645587,0.398661393206602,0.699144225051525,0.59383072677207,0.528939069554404,0.562265411005961,0.294904721472234
180,cane,12m,OC,Trial1,0.51407248402265,0.44165569377776,0.466734923853903,0.318486104539957,0.487403357296331,0.520598151094657,0.386905314019714,0.721697047475857,0.54108181522362,0.669387522341105,0.308162726773146,0.655792523395486,0.70892918377815,0.40039490232809,0.702604276337701,0.58059609353402,0.53780937575144,0.579022213240039,0.30324873684071
190,cane,12m,OC,Trial1,0.506270438420091,0.448915558886565,0.471662270873908,0.317184927032956,0.469637097552728,0.536811051218258,0.378790842305144,0.726017879134746,0.543076805950861,0.660251417217405,0.291509187098375,0.676071712375415,0.688946895851585,0.404062888395312,0.702637447942697,0.566328732392729,0.550392284174586,0.593685886922608,0.313178249136542
200,cane,12m,OC,Trial1,0.488891953911538,0.455904274141816,0.478723188064202,0.316279709266147,0.453351389699401,0.553563311805127,0.371339927214972,0.729806630569546,0.541262929354271,0.651008337943032,0.282926793025604,0.696525369371861,0.664521664845612,0.409666390241128,0.699594996522095,0.551694183821191,0.566484701866714,0.605562556413643,0.325077729352685
210,cane,12m,OC,Trial1,0.464444386006552,0.462485658870167,0.487522276772089,0.314149281412975,0.438757281970671,0.569931056647333,0.364078589219992,0.729716911077799,0.535510165416461,0.641548362613194,0.280400405652785,0.716744127925032,0.638866077383445,0.415960624734103,0.693507204561823,0.537448332016408,0.585643293384352,0.617350857034391,0.3404385955307
220,cane,12m,OC,Trial1,0.437379359439426,0.469173573692891,0.497202124663822,0.310315387325235,0.425968632025147,0.585703092470679,0.358781490382327,0.721840021908255,0.526073931392223,0.632378074092954,0.281934660493116,0.736247537632352,0.614266076760353,0.421829424638428,0.684228746228297,0.524426796131399,0.607228453341553,0.630220862104089,0.35717678878949
230,cane,12m,OC,Trial1,0.411252139796863,0.476147315456472,0.506211833448292,0.304084064643757,0.416459205335186,0.600489496931162,0.356082551568112,0.709487234928308,0.513340247542723,0.624759183758146,0.287152301672844,0.754441436146122,0.590777035979615,0.427578359794519,0.671505532431391,0.513367906144232,0.630474469791727,0.641958713765918,0.373958386259088
240,cane,12m,OC,Trial1,0.389916945611527,0.483146278430471,0.513407618496421,0.296291846248109,0.411265858408228,0.612204658618656,0.35618790409009,0.694998227848582,0.496566609581748,0.619106028031982,0.295167156341494,0.770571813820399,0.571510718724094,0.433996741738357,0.655125314598467,0.50463928090646,0.654496351042601,0.651510382629904,0.390447451762283
250,cane,12m,OC,Trial1,0.375946613732014,0.48854558235833,0.51931190383072,0.289460277181596,0.410670881253801,0.621516826630094,0.359059748858706,0.679065728818832,0.474853353466934,0.616059989405481,0.305856601812193,0.783734107095172,0.555378208952089,0.441945531508673,0.635847128272694,0.498209415743143,0.678077238539272,0.657883526891004,0.406830418175
260,cane,12m,OC,Trial1,0.368667142164961,0.49268149796468,0.524801113090125,0.281744404233606,0.415273868656229,0.634346120624122,0.364525615025964,0.661816750644369,0.449773346724317,0.616740967346626,0.319762659511235,0.79334691799406,0.541733592667198,0.451354839936363,0.611328043457695,0.494163507969579,0.699783014852435,0.662309641330832,0.423394140119601
270,cane,12m,OC,Trial1,0.365521573268466,0.493608448533602,0.532046722746515,0.277539870690927,0.423882297781761,0.647480572511479,0.37250528877132,0.643690938679152,0.42234125956792,0.622358239213921,0.33697849425438,0.79978348654526,0.530218278281295,0.461536167114152,0.585565038278585,0.490191793903796,0.719966162355648,0.665783089053722,0.438841947072538
280,cane,12m,OC,Trial1,0.361761175093999,0.493455766025878,0.539132416808459,0.278498685560846,0.437075349055343,0.660650711560432,0.382352018833079,0.625318384504663,0.393306636326078,0.631474039753732,0.356559994969782,0.803489933703275,0.520441987348475,0.473201613790712,0.558890982172743,0.487999226178893,0.739183048180746,0.668310700495817,0.448018161342681
290,cane,12m,OC,Trial1,0.358874836514003,0.492849920584593,0.543048785780026,0.286147981854596,0.455021663380312,0.671959772954751,0.392383733509481,0.606796075424065,0.364272257221204,0.64179844896526,0.377624938810756,0.805903297224559,0.512189353268499,0.487096375723968,0.531340366259848,0.488063230893126,0.756856875746916,0.670047141106757,0.451240366198833
300,cane,12m,OC,Trial1,0.358873223499433,0.492468144092627,0.542725921554324,0.297814836821736,0.474619249210217,0.679576864313636,0.402759213249522,0.588137740230349,0.334080326050517,0.651955242215646,0.39950755890164,0.806591700003601,0.505196639977376,0.503400904594603,0.502803627458015,0.490661836084028,0.77218404921558,0.670752837030471,0.448476515187603
310,cane,12m,OC,Trial1,0.361429191494432,0.492583664649534,0.539043627826128,0.310565986749778,0.493317128720555,0.684256117177422,0.413492820136292,0.569420403842615,0.30638569959794,0.660883174576153,0.4216904795792,0.805782467009044,0.498457294158057,0.521832237507034,0.474554725705667,0.496641392443541,0.784276230509392,0.669393536509375,0.439988170859299
320,cane,12m,OC,Trial1,0.368531661366009,0.493055818139762,0.531039332649959,0.323298982597894,0.5106439050677,0.685072583219825,0.42294181081237,0.550826406248164,0.283269359379974,0.667985146956515,0.443762901191461,0.803589025300857,0.491233936184594,0.541992369901746,0.44775277874748,0.506840015650782,0.791897401342934,0.667331193557718,0.42636180115851
330,cane,12m,OC,Trial1,0.379336638562896,0.492479105690914,0.519079815328223,0.334932440695011,0.5271567053487,0.67990796592921,0.429063716418394,0.532641718203071,0.26544462588158,0.67403515438177,0.465421132733275,0.800016650164689,0.483722544543655,0.563412575077644,0.423696643117104,0.518556494093467,0.795687490601946,0.664507518031831,0.408719309293531
340,cane,12m,OC,Trial1,0.3914025474737,0.491224323093882,0.505944917699552,0.344131380406141,0.540881746252528,0.669287921933637,0.430713214256794,0.515238236201451,0.253784301516585,0.679480591248087,0.486442125413004,0.794977960844428,0.476370166739318,0.585571354510195,0.406825754898359,0.528642922975715,0.796741803257068,0.660710170483312,0.388363173431307
350,cane,12m,OC,Trial1,0.402940755277461,0.491212294356185,0.494897409705216,0.350292099264929,0.549900565589039,0.651459655159165,0.425268612261155,0.498552468530841,0.247925672936199,0.684510873734108,0.506358084001535,0.788323543156674,0.469516370122874,0.60791353597567,0.3958390518325,0.536176163210967,0.79304113441319,0.655790078906797,0.369925724428021
360,cane,12m,OC,Trial1,0.412444104096847,0.492671119376297,0.487800118894209,0.352874277369484,0.554782901777524,0.625729999918925,0.413884993459809,0.481462146294654,0.248155292261286,0.689247931400493,0.526622380660148,0.779905436573801,0.463601506562456,0.62985544872789,0.38877687166232,0.542186475145559,0.783645843758025,0.649391707586926,0.353838051156538
370,cane,12m,OC,Trial1,0.419097356538011,0.495220345825856,0.485791437747397,0.351371507662309,0.556174599782938,0.596063573107737,0.399631654239276,0.46473933929674,0.255334220780742,0.693740059813357,0.546322913671309,0.769642948360745,0.459037392512985,0.650828340747082,0.384251232076242,0.548436284707683,0.771149148783115,0.642945925074665,0.342374330522189
380,cane,12m,OC,Trial1,0.42281665225862,0.498357401286339,0.488791964427705,0.34542770568119,0.55489887747404,0.564547189716031,0.384485035507459,0.449426710771182,0.267448276733524,0.697262922727023,0.565994567670354,0.75755309752162,0.456127455191769,0.670441171528106,0.381265613346577,0.55581736996348,0.756929977842389,0.6366947866222,0.336953799072058
390,cane,12m,OC,Trial1,0.423611270550797,0.501498809214778,0.494424066050543,0.33550058094708,0.551667279604668,0.532612211115981,0.367656318322127,0.436101121880048,0.280807498764139,0.698431917499717,0.58532662519903,0.743737414849738,0.455024097930719,0.688673296654984,0.379201610650719,0.564655921949775,0.741610370740026,0.630576792315496,0.333037147232198
400,cane,12m,OC,Trial1,0.421337636669911,0.503982153329794,0.50116024598726,0.323164845126573,0.547092164249045,0.500919525681036,0.349853566733635,0.425232789871063,0.291356556920712,0.697085887028167,0.603487433143349,0.728359605968121,0.455738689561067,0.705121142482748,0.377314718966003,0.575281453323648,0.72561109296079,0.625123040747682,0.330751863849145
410,cane,12m,OC,Trial1,0.416009992801707,0.505269868149017,0.508300629253059,0.309171542236486,0.541661953206229,0.469820736035499,0.334257083434544,0.415231671218781,0.299758269979546,0.691471741728087,0.619096535819873,0.711588745339998,0.4582523104092,0.721498010025647,0.375822530728398,0.588652693010587,0.709234238608993,0.620009912991888,0.329868566943455
420,cane,12m,OC,Trial1,0.408771058188265,0.503143247940866,0.515747575695116,0.29434924565254,0.531998913825489,0.439721996461778,0.322207133893043,0.405547050832849,0.305840055301039,0.682793998974918,0.627868333411002,0.693569500679329,0.462650403725819,0.737943121044287,0.375898356380378,0.600219540967814,0.69271061614718,0.61576806276509,0.327376537924909
430,cane,12m,OC,Trial1,0.401289158696175,0.499312437242527,0.522629260155393,0.278070710063121,0.518324079968227,0.407759123355561,0.315001361547256,0.396693591824453,0.309369067188561,0.672136927600778,0.633006440841808,0.675608888320156,0.46908190970957,0.754845529663706,0.377943889838263,0.60815510766467,0.676206202999214,0.611913280692944,0.321960928019895
440,cane,12m,OC,Trial1,0.393756078318105,0.495840386072025,0.53106217190411,0.264908412379022,0.502102645801453,0.377468890341425,0.313615994039942,0.388661336820932,0.308649411149387,0.659935753288434,0.63683798822992,0.65796811241401,0.477611364834792,0.768605530736049,0.381273688044424,0.611484911512644,0.65887877992275,0.607448946696095,0.316005937295904
450,cane,12m,OC,Trial1,0.387188274421188,0.49159082696348,0.541629883153291,0.256918730461981,0.483350208260218,0.349943288685153,0.312290865877194,0.381388684054508,0.307064645421305,0.646684958310072,0.63956750733306,0.64259412186335,0.487977646094933,0.779412268231902,0.385188307757639,0.607598634563391,0.640791751547189,0.60153742514518,0.310999822642286
460,cane,12m,OC,Trial1,0.385872397696981,0.486627279720157,0.554184969384981,0.252755513850446,0.462313385145356,0.325884971534882,0.310713873787724,0.373840888134911,0.30822313799266,0.632822385693034,0.642096808460654,0.629620273032344,0.498962293610163,0.78715870651118,0.38923959215872,0.59869673681615,0.623106691666898,0.59472283111462,0.308098268324042
470,cane,12m,OC,Trial1,0.385910631638295,0.483072387353598,0.565077416828094,0.25113153642446,0.439235334056477,0.307507338957624,0.309033801451515,0.364094272568291,0.313923498929856,0.618695549015577,0.644799707789645,0.618214148817322,0.511073875678051,0.791875236761971,0.39296944523026,0.586975615576181,0.605887687364611,0.587212551324884,0.306767083789145
480,cane,12m,OC,Trial1,0.387335497410297,0.484696913762984,0.575542942884356,0.252099337616558,0.414809525603048,0.293040016604617,0.307071682318185,0.352617535598489,0.323547119672242,0.604647087758585,0.647940203657132,0.609159376628746,0.52404230521861,0.79405953688671,0.396097178018957,0.573677734439335,0.590884552130028,0.579118868792348,0.3048873553208
490,cane,12m,OC,Trial1,0.390303302501026,0.490596881425437,0.585200996807229,0.255897948403586,0.390535789211337,0.282177060261373,0.304509442684774,0.339878642443666,0.33655518736256,0.591073937868987,0.651413468734473,0.600969184165634,0.535485006100649,0.79423268559731,0.397661527568814,0.55968625130286,0.576131029755184,0.570426035551936,0.300647143129033
500,cane,12m,OC,Trial1,0.395703702144566,0.499669102549456,0.596845618021389,0.262453478399814,0.367839812027525,0.273898145545969,0.301163214294358,0.32547296278867,0.354111457077295,0.578491412561198,0.654819410271404,0.593679442725591,0.54588383952805,0.793010746762637,0.399601767710616,0.54629306500026,0.561240060538026,0.561012742699402,0.293333676985571
510,cane,12m,OC,Trial1,0.403496150825964,0.51414933196422,0.611529299471285,0.271576470558617,0.347599315750449,0.270257904391984,0.297389327593785,0.310117833021973,0.373496029819407,0.567703460704208,0.657833194067596,0.587077105139239,0.555387941660413,0.791983285890151,0.403985162623579,0.534082520398396,0.546909247818612,0.550668463458139,0.285640790422373
520,cane,12m,OC,Trial1,0.412478815875896,0.53131718194625,0.626767175066215,0.282836811818652,0.330230673985281,0.268995891701227,0.296568660443656,0.294290129639578,0.3931490059964,0.560086003715439,0.66091550172237,0.580783738610206,0.563976025794232,0.790443654126274,0.410354885437716,0.521414620209231,0.53357343747556,0.539127805373211,0.278912906651245
530,cane,12m,OC,Trial1,0.420086358841923,0.549478252840711,0.640743108491135,0.296021200700617,0.315698665844059,0.269704210998358,0.299478111089422,0.278290378214743,0.411234575355422,0.557200841976041,0.662546824199456,0.573602122578719,0.571486946377606,0.788162464275143,0.417699023162245,0.508859127492013,0.521536971094526,0.52612595874121,0.273432851679294
540,cane,12m,OC,Trial1,0.426119520229594,0.567365184683885,0.651780772925844,0.311852870490487,0.304104681086245,0.272837263235707,0.302268225492847,0.2624399494674,0.428197782113447,0.559377446367502,0.663489152662607,0.567294833616737,0.579370758087373,0.78520996708257,0.425068769625403,0.497668270019341,0.511020423789735,0.511376077642552,0.269106687953557
550,cane,12m,OC,Trial1,0.428162853893798,0.584104405208772,0.656208413468888,0.330621236773503,0.296195481265032,0.277458991999753,0.308747420735826,0.247138229196997,0.445368788021694,0.566013295287974,0.664453463206812,0.561345803070227,0.587230695509244,0.782023362020214,0.43178682592962,0.487801393260492,0.502154110112849,0.494500250244455,0.265538295730585
560,cane,12m,OC,Trial1,0.430213853421935,0.597311845125851,0.65549316898675,0.352028132124825,0.293762527660075,0.283186850951806,0.318527857295619,0.23290275023037,0.45872708203884,0.576680650607853,0.663832837143435,0.554760890383426,0.593909740274925,0.779140527203628,0.437457318433098,0.478521108279051,0.494936572373233,0.478958971577823,0.261848611520706
570,cane,12m,OC,Trial1,0.433343406546899,0.608293523421615,0.650433605844892,0.375213417369083,0.297207698589983,0.289166865324214,0.329831859947556,0.220493075774718,0.471493651541842,0.590436213284702,0.662362199262492,0.547247765378125,0.60069097586793,0.77688903315619,0.441945882782014,0.469271506771284,0.489215474968659,0.465545491021942,0.25829186887087
580,cane,12m,OC,Trial1,0.437559511968816,0.617117617799735,0.642451910431261,0.398954013761019,0.305743618514289,0.294554825694293,0.341785706977362,0.211796517798767,0.483765562046661,0.605622571270429,0.660323863324843,0.539628006855381,0.608767679141604,0.77527373751665,0.445317649430012,0.459921503778247,0.484861738238759,0.454644147259532,0.257303645104942
590,cane,12m,OC,Trial1,0.442510445604119,0.623878802903505,0.632413326889432,0.421205306104213,0.319201959117184,0.298735862965998,0.355271566022465,0.208236982590784,0.495690449427682,0.621501404244265,0.657337915126825,0.532284382886236,0.617819322714778,0.773901840418246,0.44772262761926,0.45042943861342,0.481953102991131,0.446311619024487,0.260231819644758
600,cane,12m,OC,Trial1,0.447530279714574,0.628436737285671,0.621043333190321,0.439382481635286,0.337232958829733,0.303511230131323,0.369736771162891,0.20932771065757,0.506326219909477,0.636785256100379,0.652638400449372,0.525108459883911,0.630433196390924,0.769662049548878,0.449289562555382,0.440489857084072,0.480644832436444,0.440481654123523,0.270293425419482
610,cane,12m,OC,Trial1,0.451660596726241,0.62976936747748,0.608902419112235,0.455711943204951,0.35889987118017,0.307272281179685,0.384555197357248,0.216744623352605,0.518354368753587,0.651390071903318,0.645119280199809,0.5177337344602,0.645036214945153,0.765144643430431,0.450075688397284,0.430672028121339,0.481061731945056,0.43689588212796,0.285880815327772
620,cane,12m,OC,Trial1,0.453718627668313,0.628492217204773,0.596272754181456,0.468738978010281,0.381531239198829,0.311632724366456,0.399446534508723,0.228186479627156,0.53220820558534,0.665017711639258,0.635517310372914,0.511344891828846,0.660660046184468,0.761184411836584,0.450078396709222,0.42115656024915,0.483281441616462,0.434505854228639,0.299956564588683
630,cane,12m,OC,Trial1,0.452547197472952,0.625993769847934,0.582283633268187,0.480309057813349,0.404748265592192,0.315877097287947,0.414393236660938,0.239670503213001,0.546092585439187,0.676869810528149,0.624152803451115,0.507179670083828,0.676895620545422,0.757707864573872,0.449335752449294,0.412120068358547,0.487320493509545,0.429213157443592,0.309137348680164
640,cane,12m,OC,Trial1,0.447532332558652,0.622973773794479,0.566936229409432,0.490051363233345,0.428417384001819,0.31908180056004,0.429494094399553,0.251515785315451,0.559191785114226,0.687620192117913,0.611469181921767,0.502348465890188,0.693308549566574,0.754698251205251,0.448023404039299,0.407399019223216,0.493166055794031,0.419593352584278,0.314550344153059
650,cane,12m,OC,Trial1,0.439106520672196,0.619673772834028,0.549454153901825,0.498211668552889,0.452181145132657,0.319555814265188,0.444868655829027,0.263755768566921,0.571472210760216,0.694245947764828,0.598160314561823,0.497159687937376,0.709455624351072,0.749949793782878,0.446434200358332,0.4046843644058,0.500553662840093,0.411655558657116,0.316099465198766
660,cane,12m,OC,Trial1,0.428734715477356,0.615864543008618,0.529306094752997,0.504586301881856,0.475679168254424,0.318819830041538,0.460585996132273,0.276354306016732,0.587177668913759,0.697666569602119,0.584919605902821,0.493028287298399,0.724825176369438,0.744006571357554,0.446581542687555,0.404115909135929,0.507939300689559,0.406423687479553,0.317384896727333
670,cane,12m,OC,Trial1,0.419145382174418,0.611030133169065,0.507743395310867,0.507745505229411,0.498574396069575,0.31753695605584,0.476587829183034,0.289287402809167,0.601766401802881,0.700948969698651,0.572241045876943,0.489067385679753,0.738807383495146,0.736355574925615,0.448550732698115,0.406153905671816,0.514923911816268,0.404172793971609,0.320155918480042
680,cane,12m,OC,Trial1,0.412308496638662,0.603551310521379,0.485992572988179,0.508432222431901,0.520540906407862,0.316543434565168,0.492312484304167,0.3026114164092,0.612759913303127,0.705778143509264,0.560502897068711,0.483334915843631,0.750408305323133,0.727712763074675,0.449889313909722,0.411890966561011,0.521617213964737,0.402856965461733,0.324041860218343
690,cane,12m,OC,Trial1,0.407678085740871,0.592659857821929,0.464580233694129,0.509307973356808,0.541262565372218,0.316156788193139,0.506822130852032,0.317427749999021,0.620813009741714,0.711125310369043,0.550043349502214,0.478641055699339,0.756684409660557,0.717181462513298,0.452213505380427,0.422933945322422,0.528016566042558,0.401293737964577,0.328626996566996
700,cane,12m,OC,Trial1,0.404313782011507,0.580574819615427,0.444307544790794,0.511744710559925,0.560590121103307,0.316535526758534,0.520368171106132,0.33238199267829,0.626509384519078,0.715496079179625,0.541179603431012,0.475754268641882,0.75797240575545,0.704350455687368,0.457249281737883,0.442625327323837,0.533975882141591,0.399340772508901,0.333475352137461
710,cane,12m,OC,Trial1,0.403849655938375,0.568109452940254,0.426211286112194,0.513406768399317,0.579207166885098,0.317847090058501,0.533619745958766,0.348277101436787,0.631632373935727,0.716752661682376,0.534196970110965,0.474417652596751,0.754246411763409,0.689507741695659,0.466276578053773,0.468477995424369,0.539004623178245,0.397116100552065,0.337308937265112
720,cane,12m,OC,Trial1,0.409121626723505,0.556224060943869,0.410953440143054,0.514802767268797,0.596667713582937,0.320339428466489,0.546978534229184,0.365467604774367,0.636909329056514,0.71404862117546,0.529376419058834,0.47426712760155,0.745663229013128,0.673126604731034,0.478358040400789,0.497535374071879,0.544745164421556,0.394805102589445,0.341460077511331
730,cane,12m,OC,Trial1,0.41786964143372,0.546433418162272,0.398496174629733,0.517413126724482,0.610047941908317,0.324447221604729,0.560646720873417,0.384110215783749,0.642322435575595,0.708914700642062,0.527003330713002,0.47498206155763,0.734524709642407,0.656715059996822,0.49285991331584,0.52775875362982,0.550661465923163,0.39250114509655,0.347106588589186
740,cane,12m,OC,Trial1,0.429086375980195,0.543270711573086,0.389259729918015,0.52093750921194,0.617985582066805,0.330947429853863,0.574773375871309,0.404242981698443,0.64649361636383,0.702779125665556,0.527400203770739,0.477343022579169,0.722488868366507,0.640770833151865,0.509316557245046,0.557658236545958,0.556545808849728,0.390042436245998,0.354861243473899
750,cane,12m,OC,Trial1,0.442696789777949,0.545996778641982,0.384781698204116,0.524669196980543,0.622063428024923,0.339137331910075,0.589533214359241,0.425797646143877,0.648559752964809,0.697112141799254,0.5311322151518,0.480567538458159,0.710202999640092,0.626408074523097,0.527262569816636,0.586165605191444,0.56218561469305,0.387190166598869,0.364974770910805
760,cane,12m,OC,Trial1,0.458080995919667,0.553210267396539,0.387653813383334,0.527946933237228,0.622745138855954,0.350513358054974,0.60477655411621,0.447674112234452,0.650516872498585,0.694122042906642,0.534896393442748,0.483754020405267,0.69811001406025,0.614464670583058,0.546229801328156,0.613119660371754,0.567602352457574,0.383772767062604,0.376744050967466
770,cane,12m,OC,Trial1,0.474815317085416,0.563566447563564,0.400154425652214,0.530411710091679,0.618646522226797,0.362986204128143,0.621436681431983,0.4675497072606,0.652885222984602,0.693067187007811,0.538426380855847,0.486780031680729,0.687229439181136,0.605236325927128,0.565735195770531,0.638248137074802,0.573024299868866,0.379657851734163,0.388739048687015
780,cane,12m,OC,Trial1,0.492526092433921,0.576196072990354,0.415493806981457,0.532001616971174,0.60816332755183,0.378209673490935,0.637181927784862,0.485697646658902,0.655426354612099,0.692704173149581,0.541587793674675,0.489223186069729,0.674727446780258,0.598665173005998,0.585276160713536,0.66198664862553,0.578726627826037,0.374732578803821,0.39990700406484
790,cane,12m,OC,Trial1,0.510860409447821,0.590521558059477,0.42980852014772,0.533539796630833,0.594778678417328,0.395746751439746,0.650337652196146,0.505031695320753,0.657840144063914,0.69245313260939,0.544368012729156,0.490543832896485,0.66015408731355,0.594378150745248,0.604339826766349,0.684343358957994,0.584772953679083,0.368903141397541,0.40936990664533
800,cane,12m,OC,Trial1,0.529442733362146,0.606152753722846,0.443033355012365,0.536572079713159,0.581336164797745,0.415371728489408,0.660388641789446,0.523689291502459,0.658087488689521,0.691939409699314,0.547585069910365,0.489913506541273,0.642797130230256,0.591763709166952,0.62241857827944,0.705346734556052,0.590746459884386,0.362089985418421,0.416527976478035
810,cane,12m,OC,Trial1,0.547693877519676,0.622808725827847,0.454043045464129,0.540461184712468,0.56884930911073,0.435294149549291,0.66621283506635,0.539214219105942,0.656947332821497,0.690988964052632,0.553426408593807,0.486383104805087,0.621599926335121,0.590121981971312,0.639006947869271,0.724972723384826,0.595103733975866,0.3542190759971,0.421783769198634
820,cane,12m,OC,Trial1,0.564300757068975,0.640236094621347,0.462274347107277,0.545503180132003,0.558241042204076,0.453722007615373,0.666438848153787,0.553483677414988,0.656018914658571,0.689532428047837,0.561328751015767,0.477263814109114,0.595370936246865,0.588221457280316,0.653230520910812,0.743060449114264,0.595842355719135,0.345219866013724,0.428662339909138
830,cane,12m,OC,Trial1,0.577004669031401,0.658125967053991,0.466013034264025,0.551990260880079,0.550354692621141,0.470750799353375,0.660238462553224,0.567417176183493,0.655857730007089,0.687608318625293,0.570213311349011,0.465254172191848,0.566055350466135,0.586267684350142,0.663313083404269,0.759209284410253,0.593648525718614,0.335057008464813,0.438525908332403
840,cane,12m,OC,Trial1,0.583399581260915,0.675960625183309,0.467161899097743,0.560057821132805,0.545779378926362,0.486858250658062,0.645811957642312,0.580491585916021,0.656634531278852,0.685669406288186,0.57940181615752,0.451762044239864,0.535207698093021,0.585214025372831,0.669648066753231,0.772746974709821,0.589131609862988,0.323836678199526,0.451284953064376
850,cane,12m,OC,Trial1,0.584670570996541,0.689446131891186,0.466627454495358,0.569533652233545,0.544560682597558,0.501726175367607,0.628340379406713,0.591272493008899,0.658396424851617,0.68537717458581,0.58790096136026,0.437307976984691,0.503993725197277,0.583733827678061,0.673476451441586,0.780091048575156,0.583685898515038,0.311490316989525,0.466098278793799
860,cane,12m,OC,Trial1,0.583194833356797,0.700183843388057,0.465268036338573,0.579512567929475,0.546480187863989,0.515617651219054,0.609832637678362,0.597871226378321,0.661128426868346,0.684601225397369,0.594781178512309,0.422253956082086,0.473605613977523,0.579940459002063,0.677028161621908,0.784069258256347,0.577708414612036,0.29899134455689,0.480586959422072
870,cane,12m,OC,Trial1,0.579938527725354,0.708400282848635,0.462861562141657,0.588027325727161,0.550262039682405,0.528582405029854,0.591496664491118,0.600528138852797,0.664758014231399,0.681742676511659,0.598060875850762,0.407000955932908,0.445332796911253,0.577121533626694,0.681352834076264,0.785273811850716,0.571216917676029,0.290502420832601,0.493847610392123
880,cane,12m,OC,Trial1,0.574906070988683,0.712805220183949,0.462058140148339,0.593091062177533,0.553182654411177,0.539283539654965,0.574961012337935,0.598188567968591,0.669601653601324,0.676632829267913,0.598904487124673,0.392358532158286,0.420472687085942,0.574074043501939,0.687231108968408,0.781990720518178,0.564094581349749,0.290658313222375,0.505006423167964
890,cane,12m,OC,Trial1,0.567372001979153,0.714814490959791,0.46256265075086,0.592529328973935,0.552661185668767,0.546476825845928,0.562353633798822,0.593230059159167,0.675861392862031,0.671963296590978,0.59764651256426,0.379556743025351,0.399830157646072,0.569287699127702,0.695148496708786,0.777131111418051,0.55522277112967,0.29787525907781,0.513414037178016
900,cane,12m,OC,Trial1,0.556135165549285,0.715464515071408,0.461912567566866,0.584567265710009,0.551082565103732,0.549849741308024,0.552425817369785,0.58761315946119,0.681922333922141,0.666050780354174,0.595533784356253,0.368323664774438,0.383234942353006,0.562548325685106,0.704570640669625,0.772544654926643,0.543537614200487,0.304727517988454,0.516920715704858
910,cane,12m,OC,Trial1,0.5407173949716,0.713611016801061,0.461502340283169,0.570093342848472,0.54660107930047,0.548300955649271,0.544477751244638,0.581919049526099,0.688213599811155,0.65843213875971,0.593609921347558,0.358542330661546,0.3698300860528,0.554039185396487,0.71369953966596,0.77088796107379,0.533048101255621,0.308846725410915,0.516172731672829
920,cane,12m,OC,Trial1,0.521794522376631,0.707060703770702,0.46151979745725,0.550448621251827,0.53888520202757,0.543396909008112,0.537907111988122,0.576395871210721,0.695613245601909,0.648712169895391,0.59353349653174,0.349721647111009,0.358741479749462,0.544006284211755,0.71974827829627,0.770461412551645,0.523944297453215,0.310790750481343,0.510661711424582
930,cane,12m,OC,Trial1,0.499947870817527,0.697386999276469,0.461791243547956,0.52904812263755,0.529008803348296,0.536649992568578,0.53205541689154,0.57130532619109,0.704590794798477,0.636768205764506,0.594648395665473,0.341639388569642,0.348067585945914,0.534000375659283,0.720023876956786,0.770445547333218,0.516309789421807,0.311706166767046,0.500427704214016
940,cane,12m,OC,Trial1,0.475512862095356,0.686323236490356,0.462056753571323,0.508187230062706,0.517433066460172,0.527997485088915,0.526422745912806,0.566890912359865,0.712588320170905,0.622884727647778,0.597538225009408,0.335071794946005,0.338964754671707,0.528016938536954,0.716950594420691,0.769868528744514,0.509736413237298,0.313270539308583,0.486210256526631
950,cane,12m,OC,Trial1,0.448455399857687,0.674801232741922,0.462106645938708,0.489574944825545,0.503794848367376,0.517908072434182,0.520740553962473,0.563347415011117,0.72010000499208,0.607636835567679,0.602020763632296,0.33237331719827,0.334702988231492,0.523103932301088,0.711956759151371,0.768296226604356,0.504418915192228,0.315277457908878,0.468700720579918
960,cane,12m,OC,Trial1,0.421315141940107,0.663058767088513,0.463568212727795,0.473942501177402,0.490682610899653,0.50842608802944,0.514843302702753,0.560895504482739,0.727545133134928,0.591734662888239,0.607321598458175,0.330757180108671,0.334658174918114,0.520468254677954,0.707030737764485,0.766515648962983,0.501794164805347,0.318955839059335,0.450056689005535
970,cane,12m,OC,Trial1,0.394717303182243,0.650388082005857,0.463788944399221,0.462769630362089,0.47591279788982,0.501363571057803,0.508533025885574,0.559856974647062,0.734995010818706,0.575875050643577,0.613292946446487,0.329428748997369,0.335775082863271,0.520255682133339,0.703045867594537,0.765154494474251,0.501661090745131,0.324262486385263,0.437329983338776
980,cane,12m,OC,Trial1,0.368269125292559,0.636264462421778,0.461866125615022,0.454741801333125,0.459947777961928,0.49858387621309,0.501498317355659,0.56055659407962,0.742230956647158,0.56062673092916,0.620491135940036,0.328155160021726,0.337688166111516,0.522509026593393,0.700434751814447,0.764369624824697,0.504911424359635,0.331414596835412,0.432185956783254
990,cane,12m,OC,Trial1,0.345925685212161,0.622760514120405,0.459242408759552,0.449679197416836,0.443331607753316,0.501105543015499,0.493332043108895,0.563228827703582,0.74872605554089,0.546370654105976,0.62953991739062,0.326854264974952,0.340715164303978,0.527092702714185,0.699574171087551,0.764132999885672,0.51165895361521,0.340756682818802,0.429480614468302
-1000,grasp,12m,OC,Trial1,0.551927697145197,0.59283892829264,0.630295949304748,0.491636217704206,0.574833220394661,0.635684507154822,0.545024822051954,0.480950784273905,0.525406205449065,0.53451681149963,0.631322533197401,0.49608103209935,0.557579211737166,0.535641279834118,0.514933555322981,0.483137663796352,0.504094971562253,0.739808329773558,0.308842868948514
-990,grasp,12m,OC,Trial1,0.54098766108211,0.567560090739741,0.629547643566539,0.477495026379898,0.579570939515525,0.639575171675663,0.539678651260785,0.494046906539442,0.521642604719208,0.52668820138524,0.637102101373654,0.499351049229373,0.549013865913841,0.554416073891537,0.527671305587199,0.486178028885091,0.512976697098598,0.741602186274465,0.315206783165491
-980,grasp,12m,OC,Trial1,0.529523173322291,0.545867949345216,0.627193391584291,0.467125557842859,0.583275442140738,0.646040156812436,0.532792467466707,0.505777616616688,0.518628896353425,0.518192380747541,0.64282283250151,0.505124323355016,0.540069138558064,0.571612041626188,0.541580046921636,0.490455188310415,0.520074059108677,0.743719851895483,0.320850992797257
-970,grasp,12m,OC,Trial1,0.518444855545519,0.527898338372484,0.624386110590042,0.461305600979247,0.585843918145193,0.654654831652731,0.52351189197931,0.514825740396493,0.516263958704837,0.509126256635778,0.648234026790275,0.513918634329699,0.533338230101762,0.587798927487013,0.556641085495501,0.495819767002708,0.525608113393651,0.745738835046667,0.324155129786511
-960,grasp,12m,OC,Trial1,0.509176011843788,0.513409870619631,0.622190518363426,0.461041651312208,0.58705397530721,0.665304913272524,0.513272659875912,0.522372035560808,0.514801980062497,0.499541831098657,0.65446153819963,0.525719909744491,0.528240629523988,0.603240476559321,0.572499710593439,0.502041161725996,0.529158026055634,0.744699991105514,0.32832099412825
-950,grasp,12m,OC,Trial1,0.502576729087429,0.501046332474577,0.621398089112281,0.466400968945246,0.5866814207333,0.675189150203058,0.503641780009175,0.528942233847304,0.514383427979974,0.489522097863269,0.661864676583282,0.539965234453888,0.522542224469124,0.618963183048506,0.588742923801349,0.508795975873615,0.530840608304857,0.739398898039002,0.334393531188338
-940,grasp,12m,OC,Trial1,0.498723496656498,0.487792220181442,0.622863892243867,0.476784982311601,0.58493441285216,0.681366442931031,0.495142749875029,0.535071375795128,0.515069191832297,0.479397374937073,0.669416321270707,0.554773863848716,0.516079326882961,0.634922057835653,0.605813039014521,0.515683029147007,0.530681036517394,0.731938294204043,0.342247045069615
-930,grasp,12m,OC,Trial1,0.497393613811721,0.474946470791581,0.627582045016445,0.490602505544163,0.58294775808858,0.685402134739049,0.487908878398565,0.541207900921016,0.516898777544088,0.470912549546728,0.677245054318659,0.569080872128651,0.509020025427232,0.649311768461326,0.623904468726106,0.522135923064884,0.530777609653988,0.724806631370722,0.351739894310279
-920,grasp,12m,OC,Trial1,0.497153533922094,0.463328846322998,0.636844886799333,0.506240423337375,0.581071630044029,0.686221673318205,0.481776747682329,0.547629531462552,0.519899616895886,0.464565953211795,0.685733083668723,0.582429344727657,0.50128313236947,0.662160774205864,0.641950565686446,0.527396321636463,0.532174739786357,0.71802540189098,0.362625459662381
-910,grasp,12m,OC,Trial1,0.497939097136027,0.453626416671367,0.651218340114196,0.52259160270588,0.579430619426297,0.684559047729559,0.476441091005389,0.554368634168289,0.524048543632769,0.459480784620545,0.694042891420004,0.594387663789238,0.494195089959615,0.673820854393077,0.660761730878397,0.534659370555559,0.537490691876979,0.71183879745874,0.374649125924287
-900,grasp,12m,OC,Trial1,0.500818917219647,0.44659762038127,0.669201438962508,0.537700739320058,0.578098582602766,0.68062675804594,0.471561301153188,0.561242690131117,0.529057139672787,0.455603802973904,0.70219273517408,0.604558554006876,0.486798916040371,0.685596303860082,0.680218633702087,0.542529181278668,0.548147268128717,0.706237728687009,0.38756794394136
-890,grasp,12m,OC,Trial1,0.506096628016998,0.442811356404686,0.68966555977128,0.55065528795718,0.577127011206926,0.677088385241027,0.466786077283642,0.567926745919293,0.534623501792799,0.452761284840869,0.709975729943323,0.612695300284178,0.479328163136502,0.698037553553092,0.699601652980168,0.549233880129654,0.564445848894998,0.701165472736952,0.401124816346588
-880,grasp,12m,OC,Trial1,0.513931100646905,0.442759513673348,0.710539525919391,0.56191824258864,0.576552474295088,0.67353361550651,0.461753850629783,0.573975104341096,0.541351951992714,0.450561124219781,0.716811615433946,0.618804494848168,0.472224653370131,0.711344582515729,0.717179761907227,0.554290022227321,0.584691230294905,0.696678931384879,0.414795261426339
-870,grasp,12m,OC,Trial1,0.524264780392305,0.446606860930689,0.730511245508136,0.572169220672971,0.576399154142339,0.669903829456292,0.456165334191082,0.579093678324508,0.548884285246826,0.449432599250204,0.722161922836471,0.623400036966444,0.462679069345134,0.725448598776293,0.729929136578488,0.554739898832194,0.606380717311171,0.692914456457677,0.427586804062593
-860,grasp,12m,OC,Trial1,0.534486672221553,0.453923247399134,0.750416485774582,0.582024178228061,0.576677922612446,0.666921601012233,0.449961337922537,0.583221479555685,0.556917280473216,0.448784921839027,0.725890770441148,0.626357140319369,0.451967962267299,0.740066483208976,0.738380624240734,0.550960954410018,0.627820992738145,0.69007245121447,0.439322829482582
-850,grasp,12m,OC,Trial1,0.544991187242386,0.463903383342488,0.770084308413335,0.592222220562005,0.577380669447769,0.666211170867114,0.442363017262456,0.58569778861767,0.56531163676231,0.447826196754259,0.72643410036741,0.630080599077325,0.441094823386331,0.754799252579933,0.745012070574216,0.547319004869634,0.648075449024328,0.688374634431929,0.450588646187066
-840,grasp,12m,OC,Trial1,0.55540300110189,0.475663758117763,0.789134681979465,0.602966146236215,0.578466446581118,0.669857037595781,0.433496440090378,0.582892451154621,0.573957130613464,0.444841497968432,0.723593918940857,0.634084839586157,0.430724765334239,0.769105425766368,0.750141263822835,0.543082664659205,0.666561453902864,0.688003146246055,0.462110511901507
-830,grasp,12m,OC,Trial1,0.564897527869626,0.488335211451649,0.8073215107342,0.6137360401731,0.579826960668143,0.677653375012038,0.42765874266064,0.576681879107801,0.582719812387387,0.439565417023778,0.718331617275079,0.639060194651384,0.422413404209947,0.782232972693523,0.753907754160099,0.537992676939295,0.682898390934782,0.689066336052561,0.475147227832603
-820,grasp,12m,OC,Trial1,0.57268938893998,0.500950887337961,0.824410357110921,0.621918080268998,0.581187282610174,0.6862248587704,0.426221989879345,0.569592750454331,0.59144905010873,0.432709405051389,0.711332298963461,0.645527779640106,0.41690654380464,0.7932051768992,0.756127155048033,0.532077149223247,0.697937304534893,0.691607328510135,0.490759083666827
-810,grasp,12m,OC,Trial1,0.577708721043483,0.511521333535218,0.839832756334326,0.624029300310999,0.582069020149512,0.694300471123895,0.427312905422244,0.562407219950873,0.60002394727144,0.423524588643663,0.704359678146903,0.653555172592323,0.412683565977424,0.799714868259082,0.757009165288556,0.525907872569582,0.711561220206544,0.695350245621956,0.508263063805895
-800,grasp,12m,OC,Trial1,0.579563270422894,0.518455434091271,0.852842408806816,0.625055387199388,0.582705084800752,0.70087384770435,0.429706362451982,0.555985796480262,0.60785559025398,0.411355024395656,0.697542116066563,0.66368554315251,0.409092108990609,0.798819022521874,0.754488667818378,0.520793462270267,0.723354929993439,0.701813494158837,0.52715364306556
-790,grasp,12m,OC,Trial1,0.578780210630685,0.521847332623653,0.862465632955137,0.625482524371791,0.582355914712945,0.706685864114953,0.433234762510482,0.551264542804621,0.614570293336125,0.399344275064993,0.689982423458055,0.675716904082256,0.406119251959251,0.790664792033123,0.749110566246967,0.51655643894862,0.73253963124787,0.708350990415605,0.546664588732773
-780,grasp,12m,OC,Trial1,0.575780130734385,0.522423606889886,0.867611737083511,0.624216854600635,0.581921103018558,0.712050119582401,0.435878267022428,0.548749338950059,0.622641782007887,0.390953520249815,0.68169684575939,0.684088617608768,0.4040693923619,0.777133741514041,0.741361249327655,0.514168057459271,0.738368264603702,0.71373292982447,0.565460507727474
-770,grasp,12m,OC,Trial1,0.57106741074671,0.520358776960058,0.86602540407926,0.621014678097363,0.58212727537333,0.717297755146975,0.437797731707566,0.548943629140177,0.630633865703303,0.38772195233969,0.672774715284918,0.688027736457605,0.403313304067295,0.758697534049168,0.731310544021739,0.513697291685267,0.739754135996042,0.717351550616458,0.582872273939987
-760,grasp,12m,OC,Trial1,0.564404839314326,0.516304993622151,0.860487335403957,0.6156109024149,0.582712107257581,0.722736133235757,0.439135980214209,0.5520654116563,0.637551533792961,0.388890700886492,0.663416805098628,0.689989155336234,0.403916567214293,0.736544389354336,0.719101067021697,0.515128662528057,0.736251385574886,0.718482262306343,0.59958008387259
-750,grasp,12m,OC,Trial1,0.555749720896868,0.511782024050569,0.852100702389235,0.608616367210301,0.583363333645121,0.728608165150854,0.439916129907177,0.556852014804118,0.645707900746294,0.394068550838968,0.653424847534774,0.690632866300883,0.405481795584353,0.711631133138479,0.705709480775277,0.518336673679921,0.729794031526783,0.71566073836261,0.616151309110591
-740,grasp,12m,OC,Trial1,0.546233583683202,0.507845326002888,0.841845198519137,0.600615425533251,0.582728266662183,0.735023750662791,0.440155448661825,0.561904942642741,0.655602622740129,0.40310602883518,0.642306998874744,0.690232193045838,0.407571971567069,0.684079489064912,0.692885126127679,0.523156201827686,0.719867218624477,0.707764198074177,0.633161859320636
-730,grasp,12m,OC,Trial1,0.535842756758811,0.505149492666475,0.830507839275282,0.590866249433789,0.581275255142184,0.741953655732507,0.439827196242614,0.56623322248474,0.667202152892463,0.415581878802899,0.628643339073697,0.688620259590749,0.409869174685526,0.653504815943385,0.681241598786461,0.52955452644984,0.706961963119431,0.695466310301426,0.651001899305344
-720,grasp,12m,OC,Trial1,0.524958181453517,0.503971557624641,0.818626558007028,0.579796110374363,0.58055151765575,0.749279015483609,0.438874960009021,0.570269098880655,0.680322750543486,0.430930224337527,0.612985985465922,0.685320351482975,0.411729105472593,0.622549738994085,0.671481535232317,0.538469035720738,0.691652203057983,0.681521918721751,0.669721082239635
-710,grasp,12m,OC,Trial1,0.514072259533137,0.504243943143446,0.806532026084885,0.568512608685468,0.5816600960179,0.756854092609529,0.437583163709649,0.574376578741868,0.694630135683989,0.448515878749268,0.596638090314303,0.679303254313986,0.410399153469169,0.591660733957846,0.663638730764513,0.550640374210196,0.674650023520468,0.665854809175665,0.689335946150404
-700,grasp,12m,OC,Trial1,0.503704916844416,0.505884034075725,0.794373633427307,0.5551687875134,0.585336973043182,0.764572763224518,0.437621033228288,0.578737952999888,0.70962998536791,0.467683385129355,0.580752405657044,0.669925046137185,0.403246944538126,0.562319080881946,0.657761272936866,0.564448384383352,0.655602224078332,0.645493874202068,0.709887577958363
-690,grasp,12m,OC,Trial1,0.494452323511583,0.509456294959885,0.78213693387527,0.540115483508002,0.591929168298961,0.772426883546241,0.440058475127158,0.583647669866737,0.724662595072883,0.487789448902407,0.566034871657198,0.657239808084524,0.391580374263383,0.534725712364226,0.6540515493372,0.577734649654092,0.635871975651721,0.624001721366242,0.73136688008239
-680,grasp,12m,OC,Trial1,0.487005526104962,0.515657366285938,0.769580220979385,0.524165354815831,0.601392185041944,0.780538600163804,0.443745764932607,0.587982613074786,0.738933177184933,0.50822210911091,0.553277056268545,0.642025001183107,0.378685102576589,0.508601271831605,0.652588610235353,0.590363446565904,0.615988236327709,0.603095079988099,0.753671009314075
-670,grasp,12m,OC,Trial1,0.482079938698027,0.524448691556492,0.756171603455109,0.508459409812721,0.61327753812318,0.789150939476665,0.448566123473824,0.594604753842564,0.751549692049819,0.528315954368542,0.5444468551141,0.625048828267804,0.367104155727117,0.484274496175353,0.6531365132448,0.60389080641818,0.600164927444653,0.585041693869257,0.776577519945115
-660,grasp,12m,OC,Trial1,0.480242677850182,0.53518008431878,0.739899413486391,0.49491651767379,0.626645001861305,0.798557340510713,0.454309857433561,0.603449683243867,0.761630358703452,0.546776619540265,0.538479012766005,0.606829620670094,0.357995838475538,0.464140882492897,0.655351842792701,0.618878210103497,0.589217178128831,0.566700369367143,0.799739963932593
-650,grasp,12m,OC,Trial1,0.481548248959546,0.54734224145628,0.720842371531237,0.483959943843991,0.63985965412236,0.808956291652698,0.460641304697658,0.612842665961206,0.767980106931235,0.562160898110883,0.534234375638932,0.587768892063897,0.35215215594226,0.446330694380617,0.658985765726594,0.633937382188377,0.582611998310981,0.545279346946656,0.822731471165001
-640,grasp,12m,OC,Trial1,0.48511523368845,0.560114124583026,0.700189828082292,0.474934678176434,0.650442411876808,0.820280657316168,0.466967589744096,0.618176542394822,0.769938756788579,0.574278095834317,0.531217173946586,0.568183185759993,0.350276577787565,0.430126929739146,0.663775818883504,0.647830856591856,0.579463704318204,0.522836254236352,0.845142354923455
-630,grasp,12m,OC,Trial1,0.488526168336818,0.572088449771194,0.680306915277635,0.468002904287743,0.656491612273022,0.831858805449938,0.472252870226273,0.618944269414822,0.767541106467386,0.58309524106704,0.528738817600315,0.548333420163062,0.351830718594043,0.415537622397075,0.670207687389211,0.659738294232623,0.57866360695236,0.499457698667074,0.866619112941155
-620,grasp,12m,OC,Trial1,0.490055411522101,0.582306163768063,0.662286523284226,0.46471706708062,0.655104791612442,0.841671765498966,0.474978519934496,0.614766527867338,0.760492376686989,0.588021822469802,0.526161067774587,0.52845430448616,0.357835167941639,0.402670333670479,0.679262009256503,0.669612517753122,0.575516215501596,0.475547392835328,0.886632811151168
-610,grasp,12m,OC,Trial1,0.488932554897135,0.589569529699565,0.647663269119693,0.465903306110002,0.644269191444735,0.848655236833584,0.478095613109704,0.606791658266812,0.750257694450908,0.589218936793502,0.522999744565377,0.508788845470348,0.369614460815481,0.391757570117726,0.689865629444681,0.677479311651178,0.56904734052836,0.451458753478334,0.903957097476884
-600,grasp,12m,OC,Trial1,0.487156452567242,0.596038874260277,0.635263469696562,0.469211037262568,0.627671764838212,0.85153317015715,0.481679541394956,0.597514477155083,0.738794596000918,0.58784585520214,0.519123389168898,0.489637030959286,0.386294804324586,0.383175340551275,0.701425872004852,0.68464030216935,0.560175742133526,0.427681552814023,0.916076533903339
-590,grasp,12m,OC,Trial1,0.487063016511163,0.602636986201455,0.62465020189072,0.474257969011204,0.607104482382589,0.849102821938062,0.487993676743965,0.587668866186831,0.727077100910523,0.586399145549371,0.512283115862388,0.471422857975013,0.406857240553569,0.377390931981273,0.712777834605921,0.691130862823508,0.548733936315257,0.404850519959519,0.919314703563698
-580,grasp,12m,OC,Trial1,0.488168712082793,0.609753687294994,0.614808512218143,0.479744016803121,0.583371683432642,0.843080831468096,0.500263368889501,0.577122090466998,0.715217867730669,0.581738582298189,0.504634697352266,0.454763108774371,0.429661861916687,0.374835254664143,0.722148257830673,0.697268609182864,0.535130269189424,0.383716030092377,0.916269136404065
-570,grasp,12m,OC,Trial1,0.489637919576359,0.61734102817521,0.604801514512682,0.487146051775189,0.557144266985584,0.833485262459778,0.512971672335545,0.565745648080771,0.703617563604292,0.575779708908048,0.496710928444768,0.440462955216914,0.451772258654404,0.375707754839331,0.730830794301655,0.703111573640089,0.520258995990695,0.365055708277099,0.909034542265889
-560,grasp,12m,OC,Trial1,0.491369054546558,0.625162335558664,0.592780415460319,0.496544786175817,0.529133871823531,0.824048221883737,0.527734455527679,0.553447709819645,0.693173795050923,0.570168443207825,0.489963749389695,0.42933106135236,0.472528433124682,0.37930351370191,0.738943365655448,0.708553992389754,0.506615867320633,0.349470644730244,0.89845288986046
-550,grasp,12m,OC,Trial1,0.493439906734437,0.632857217401897,0.578462429604743,0.507190999095907,0.500027293377588,0.815691691051334,0.543517667655691,0.540316557325471,0.684256713155675,0.56530218120528,0.488614329601413,0.421842816657205,0.489182906614241,0.383207693996329,0.746253432534531,0.713531522525548,0.495731200254057,0.337173699639451,0.885217651187573
-540,grasp,12m,OC,Trial1,0.497917806140068,0.638920691027851,0.563097669005971,0.518273327350433,0.470454132642955,0.8086146148746,0.559637368392426,0.526860748875519,0.676505149913546,0.561765729392041,0.49133111321199,0.41788483226283,0.502502978141063,0.38826483348223,0.752349553174173,0.718048068694997,0.490170198579229,0.328078193190757,0.86986873242231
-530,grasp,12m,OC,Trial1,0.507316112054014,0.644270870662054,0.546538756279739,0.528997665612663,0.443734891810384,0.80269639166806,0.576523651696962,0.514433833201991,0.66932941708103,0.560193161051186,0.497007076847037,0.416814652476424,0.514396133086642,0.396826810817858,0.755698325196153,0.722275351666969,0.492742369314536,0.321345556344109,0.852764901643232
-520,grasp,12m,OC,Trial1,0.519249172004597,0.649468352008911,0.528731664720912,0.538565332100806,0.421025551050559,0.797634136875343,0.59428604636537,0.50440300880897,0.662210005011573,0.561386599137227,0.504848391758722,0.417805280117226,0.525686391224814,0.40845673467448,0.757209949941493,0.72694479645472,0.499657640111979,0.31524801795406,0.834037499878516
-510,grasp,12m,OC,Trial1,0.532594290193264,0.654869673638719,0.509961877323856,0.546128795925554,0.399437178956906,0.79302890200175,0.611399585960757,0.49468004386765,0.655303308009387,0.566406287440225,0.514386490405187,0.420272979597494,0.536716841686841,0.422396204940024,0.756854553098541,0.730624526835274,0.508808861258895,0.309605263966731,0.813526857918324
-500,grasp,12m,OC,Trial1,0.547896004840928,0.660221370852754,0.490589876774701,0.551247069513628,0.379699442679813,0.788443700211985,0.627876964454487,0.484807046946256,0.648784806704101,0.576201948952152,0.525407041238159,0.42377264893252,0.547474094479162,0.437869342873809,0.755920132468137,0.735302473278662,0.518737924300907,0.304997881776429,0.790600000465787
-490,grasp,12m,OC,Trial1,0.566285797243715,0.664927831099354,0.470882269504526,0.552911416920807,0.363576672995886,0.783531129834539,0.643626462126126,0.474814317160433,0.641228591610008,0.591417082848052,0.537799335069615,0.427262719901761,0.557697639388818,0.454130666725908,0.754733010675552,0.741437660321797,0.528310609653717,0.301277560629568,0.764041462027038
-480,grasp,12m,OC,Trial1,0.58642227621985,0.668202466293535,0.451014574971519,0.553354978118076,0.352544120595333,0.778223352858492,0.65852187074462,0.464943258122755,0.633211027742095,0.608237139372497,0.551300137817178,0.428152084234247,0.566926350593411,0.470537626989501,0.753145115497457,0.749266337149322,0.536713712334459,0.297922782476997,0.73550299793115
-470,grasp,12m,OC,Trial1,0.606751344725673,0.671912802663105,0.431177468913727,0.552964257080376,0.345375542059742,0.772597752590281,0.672569713125743,0.455517078667594,0.624576293969349,0.624546285793326,0.565573908785934,0.428350899204846,0.574564084139634,0.48640048813264,0.751433350415707,0.758863348233581,0.543370097710773,0.294105377446647,0.706275145946481
-460,grasp,12m,OC,Trial1,0.626508031593805,0.676342037578966,0.414285824943846,0.551429033584932,0.34182073935842,0.766634442624174,0.685880464068057,0.446861822977504,0.615099982520628,0.639478952233961,0.580426265935436,0.429288606821487,0.579773779461749,0.500218189462692,0.750002538323597,0.769726007256926,0.547131969142309,0.290793522775946,0.676855923808787
-450,grasp,12m,OC,Trial1,0.645200296325133,0.681979800979124,0.402951665642155,0.548737764272357,0.341680377750106,0.76017100678558,0.697941191201443,0.438777638431088,0.604470862005727,0.65254263319806,0.59576183873112,0.431125779013807,0.583142378915419,0.512708902135741,0.749296287988924,0.780343905273095,0.547497509805457,0.28653637965737,0.647559726478161
-440,grasp,12m,OC,Trial1,0.662434969809695,0.689280990010442,0.393198998206493,0.545643692105237,0.344475403178509,0.752950043197747,0.709582169060809,0.432226190381719,0.592268764643833,0.663396778030665,0.611526004975478,0.434076864195289,0.5839222700084,0.524323799502511,0.749751425013392,0.789064533068408,0.545505202561634,0.278882157435688,0.618656440542912
-430,grasp,12m,OC,Trial1,0.677947450589425,0.698717581728665,0.385296635389272,0.542858215016509,0.349628411885048,0.744965967807967,0.721712093714197,0.42983365355044,0.577673261865794,0.671710378192177,0.627678402920033,0.438400801549636,0.581914206050818,0.533834274574049,0.751479643170468,0.796891408885579,0.542486738461121,0.267319139125128,0.590458464847588
-420,grasp,12m,OC,Trial1,0.691563592665199,0.710932463483115,0.379330847682663,0.541147511296078,0.356570536439107,0.73776029061284,0.734354623872085,0.43292352141976,0.559990938538035,0.677056867014821,0.644172771743857,0.444370919950203,0.578335148240392,0.543732049185153,0.753809374125944,0.799876574229678,0.538391522383267,0.252980636007719,0.56342551527424
-410,grasp,12m,OC,Trial1,0.703127937245046,0.726147166910451,0.376095813532358,0.540078144735645,0.364776221787271,0.726656193086999,0.747118279147422,0.43840368923348,0.541439442939281,0.678288829843224,0.660940752872981,0.452225592649397,0.575615299544875,0.554911500455773,0.754680628688277,0.801957767909309,0.534947550693684,0.236668286266567,0.537940340453345
-400,grasp,12m,OC,Trial1,0.712447809292748,0.743473073840989,0.376404408668324,0.537029113125666,0.373851467426358,0.707240519350874,0.759415068137405,0.443060945183123,0.521712502604391,0.674601772316066,0.677747884026727,0.462103264970134,0.574262167554416,0.565612380204104,0.755328072342725,0.803279939716456,0.533044296857542,0.220024770518609,0.515921563607282
-390,grasp,12m,OC,Trial1,0.719248181389406,0.761598597574405,0.379694025141017,0.532042796790835,0.383611115288058,0.682780386956087,0.770320928455336,0.446485630179565,0.499487109543629,0.668835978091382,0.693756883102243,0.474032204746331,0.574132872029688,0.572647947795654,0.755690219450532,0.804014631936002,0.533423744025245,0.208993464912781,0.497937729588576
-380,grasp,12m,OC,Trial1,0.723116121698217,0.779019047060508,0.386938225410451,0.524801638756142,0.394044723440834,0.657750702349836,0.777755128557296,0.447714113166626,0.473684163525686,0.661439578954934,0.707789268990443,0.488002685859042,0.573634533981289,0.576714298400312,0.755810508196033,0.803958520737506,0.536615615124966,0.212356577223469,0.483623167159712
-370,grasp,12m,OC,Trial1,0.72341230565671,0.795200927937446,0.397110015723873,0.515292473594025,0.405231618085824,0.634911783331894,0.78228429034703,0.446792803550862,0.447134581317032,0.651917780474797,0.719790802049045,0.503979686458362,0.572313097076806,0.577923691302159,0.755637882041153,0.802553963160817,0.541422143091209,0.221487613845123,0.47234593256129
-360,grasp,12m,OC,Trial1,0.718729492309678,0.809457801022382,0.408837909123796,0.502796963428176,0.417239630272869,0.611302043591047,0.786019365514746,0.444271399531168,0.421786473613316,0.642608991148309,0.731119366613372,0.521892303942226,0.569213123688481,0.575795246512,0.754846059282449,0.799580668589702,0.547629815640589,0.234464876858288,0.461897286244086
-350,grasp,12m,OC,Trial1,0.707492685198287,0.820843201055685,0.419631632605363,0.488137033337247,0.429891357652695,0.588210937045093,0.789408560004874,0.440862517726473,0.398999484497591,0.635738908431187,0.74236605005991,0.54163572512678,0.564824096091288,0.571211231259488,0.752680558378541,0.796254789799146,0.554822253426568,0.250918854690656,0.450274786201775
-340,grasp,12m,OC,Trial1,0.691128134537043,0.829370661320906,0.431749886255848,0.472725865650303,0.441918190541819,0.5655189695749,0.792650627710361,0.439300109698471,0.37953087626086,0.632864253048319,0.753657616062997,0.563039346018755,0.561746476308317,0.563384073197739,0.747077433589151,0.793040562982965,0.563302460015403,0.26947352745926,0.437108233936114
-330,grasp,12m,OC,Trial1,0.669765700654226,0.834974641186605,0.445038901680144,0.457372031337238,0.453156713429538,0.543110100932732,0.795743810690229,0.439037484469462,0.365436249630994,0.634441679221594,0.765012211390455,0.584548550829216,0.558130855261152,0.551458280164095,0.737780056764698,0.791123617991063,0.573453287572436,0.288701350330667,0.422010777399838
-320,grasp,12m,OC,Trial1,0.646066664267771,0.836594192495611,0.459337164317717,0.442948930537519,0.464911114405581,0.521062099846934,0.798512959873859,0.438357092699169,0.356241801432201,0.639442386849281,0.776433292423361,0.603630662680053,0.55329159938925,0.535060199254563,0.725108538374403,0.789695550104078,0.585968081539884,0.307092702500751,0.406034449575261
-310,grasp,12m,OC,Trial1,0.620527126894795,0.83497101334211,0.47455882170577,0.43234378027827,0.477599851862433,0.499434117217462,0.800579479643729,0.439262249817685,0.349816995136755,0.647244264157836,0.78800280368634,0.618386547216022,0.546213828027207,0.514437448156192,0.710114618338552,0.788587337321543,0.601940002958958,0.32301020129499,0.389853124080462
-300,grasp,12m,OC,Trial1,0.593336537025438,0.829947488946493,0.490597464126487,0.426833330935095,0.491360108301578,0.478394481951964,0.801455064480273,0.44211610489118,0.34634844555028,0.656983620706019,0.799958201978018,0.624579524088645,0.537580214171047,0.491508626260733,0.694350009517115,0.787872776894857,0.619494855850017,0.335235504286256,0.373908633028898
-290,grasp,12m,OC,Trial1,0.564423441082966,0.821780765049453,0.507224761163403,0.423308562798816,0.506117384936962,0.458376569519826,0.801126746436442,0.448366393348835,0.348873266053581,0.667723985735303,0.812584201921005,0.627087975338824,0.525976635533865,0.469501458512324,0.678612637592298,0.787806448182023,0.634521488039084,0.343414326773282,0.358640269036293
-280,grasp,12m,OC,Trial1,0.53374424351431,0.810859062842204,0.523889794981369,0.422214391518045,0.521420239174559,0.440280124632958,0.79995821419995,0.459424718666208,0.356473685749684,0.67988859739478,0.826045453021679,0.626966153916833,0.510932549054779,0.446875909138641,0.665002952092673,0.789119278484062,0.645908326433701,0.350936039596193,0.344571991439165
-270,grasp,12m,OC,Trial1,0.501486271665306,0.797536325154286,0.539386837617445,0.424074262246535,0.536427183467316,0.426267726373464,0.798104030295168,0.475513967160371,0.365834304318739,0.69238764309995,0.840232587386167,0.62492599839971,0.494217121086108,0.425906877820363,0.656626857061291,0.792892162560873,0.650150063975818,0.357944733185025,0.332317963590184
-260,grasp,12m,OC,Trial1,0.468166496037031,0.782212468129933,0.550712040816095,0.42666254847052,0.550594203801525,0.41532780072363,0.795520977760515,0.489502960290898,0.37546867268862,0.705475290168851,0.854573094914203,0.621500128584808,0.477194074247626,0.406662002152512,0.651556032952979,0.797637159731976,0.648509265760962,0.36386809740253,0.322297626994973
-250,grasp,12m,OC,Trial1,0.434550700739027,0.765221695052898,0.55928118240931,0.429519226302837,0.563442021186612,0.406057236328546,0.791956488496813,0.499196451895994,0.384666983238299,0.719285439483771,0.867550706786422,0.616976704179572,0.462775631982335,0.389753554239994,0.648158738455845,0.800302966631837,0.643037545229207,0.368024460312999,0.314014644651664
-240,grasp,12m,OC,Trial1,0.401409695714638,0.746622479001246,0.566028094752852,0.432197829915122,0.572266389166506,0.398465583429591,0.786706430701498,0.507753522483642,0.392816406445855,0.733793005714086,0.875357664169774,0.611489967459751,0.452335721764927,0.373972240361355,0.645501643672465,0.801713892943579,0.634628127034647,0.370929289828007,0.306259042642739
-230,grasp,12m,OC,Trial1,0.369471913655674,0.72682864583764,0.572579574403333,0.43443217367752,0.580979453307869,0.39229986148061,0.779351188314853,0.516966798947171,0.399496601446284,0.748945205993983,0.878873908208963,0.605149426211779,0.444029249213063,0.361412477295756,0.642987250165552,0.801642373675526,0.623851299371714,0.374085584558972,0.300183801242164
-220,grasp,12m,OC,Trial1,0.339497088148415,0.707176210978807,0.580516392012195,0.436475582095623,0.590373475183821,0.387337823176617,0.770692098381163,0.527821035858867,0.404400881494924,0.764700694399255,0.878843764141148,0.598111661147079,0.437576455564331,0.351621353798002,0.640381525767373,0.800297794148803,0.611072615048094,0.380956225969823,0.296572783479497
-210,grasp,12m,OC,Trial1,0.314135785013617,0.688630317414733,0.58975738847402,0.436987022460123,0.601144028918754,0.38298926119223,0.760744563445438,0.541055974345087,0.407216524432053,0.7810235653025,0.876364645056898,0.590577995111518,0.433399521291652,0.344599122953475,0.635801327515992,0.797951975914252,0.596636390672835,0.389986039623362,0.295064217591983
-200,grasp,12m,OC,Trial1,0.296629314876365,0.672057193966356,0.599094436119925,0.436732206836086,0.613258877230639,0.379101000166647,0.750196543206475,0.55548752673351,0.407483569606118,0.797828322884394,0.871737872370479,0.582776711319428,0.431656994053568,0.339994694462396,0.631053411483964,0.794885329256394,0.581034073210413,0.399738403641535,0.294798057609294
-190,grasp,12m,OC,Trial1,0.283595515595876,0.658839564387407,0.608796310031617,0.436846726436515,0.624005772638591,0.376557262123547,0.740643142292559,0.570447682595291,0.404527451744839,0.814746413980888,0.864843055516333,0.574967761419412,0.432452935377224,0.337480026792607,0.62612620613367,0.791325331910682,0.564823867601755,0.40926112205865,0.295278096178393
-180,grasp,12m,OC,Trial1,0.273426103117491,0.648948679293131,0.618634551052413,0.437509529100095,0.632277503323079,0.374881555726847,0.727281257514917,0.586847457624709,0.397551582479534,0.829301214652459,0.855847509337646,0.567503566336248,0.436908732396,0.33690857545125,0.619282309949041,0.787373534198086,0.549268100510021,0.417686644571625,0.296480205220202
-170,grasp,12m,OC,Trial1,0.264923742866005,0.641504313565018,0.628308299798613,0.437831833897236,0.63759865765186,0.374229806310509,0.708810033538335,0.605095252164238,0.386132892788025,0.840356444635487,0.847205955023018,0.560862651461825,0.445502024043001,0.338637321361476,0.60945479774154,0.783023863474569,0.535412557973771,0.42413008368422,0.298570630762564
-160,grasp,12m,OC,Trial1,0.258810958518425,0.63630407544928,0.637280793178813,0.436413742801441,0.640017199637482,0.374279802512914,0.687484439621408,0.622943917728918,0.372274756978409,0.848712482595648,0.838713401480315,0.555449014324156,0.455956847057687,0.34336697577921,0.599020170183573,0.778505778877167,0.521220317682393,0.427440406196718,0.301742085257917
-150,grasp,12m,OC,Trial1,0.25375187103601,0.63337574263183,0.644881155590878,0.433374808564317,0.639959924072959,0.373278804799319,0.665135627158295,0.64013561961676,0.357618870908075,0.854801784540706,0.830508587585204,0.55127477510139,0.467337779492391,0.350633145682517,0.588003705516606,0.774763304883815,0.507145205740567,0.427098443078716,0.306052743026986
-140,grasp,12m,OC,Trial1,0.249754307084176,0.632757776337144,0.650295237903492,0.428078401495125,0.63797273637701,0.369363124094362,0.64291575207153,0.656200434184809,0.344860990917632,0.858541643802163,0.822377287505338,0.547691240591763,0.479006376101561,0.363906839594498,0.577955353060149,0.772451389479401,0.494635238092061,0.423761868880768,0.311271740088896
-130,grasp,12m,OC,Trial1,0.247157230177643,0.634365512630743,0.652656525667893,0.420089126583014,0.634581019357884,0.365088842258911,0.621678075539147,0.67051618118152,0.334477974335601,0.860910411065265,0.812589976085589,0.542195154549637,0.489095706127084,0.382584124392908,0.568162712227045,0.770814278519667,0.484371815589294,0.415577027705946,0.316753813549018
-120,grasp,12m,OC,Trial1,0.246735538802574,0.63750765703065,0.652219986199513,0.408925612130606,0.630285784368664,0.359475012754346,0.602030046928411,0.681206291432083,0.32627203707905,0.863134812475019,0.799722011577306,0.531770539948566,0.501223413689614,0.404738625344571,0.557428349837785,0.769694525025872,0.474996452545746,0.404743581806233,0.321108258919896
-110,grasp,12m,OC,Trial1,0.248998082922619,0.639594234241289,0.648255644256896,0.394543810351523,0.62572442750466,0.355768026779525,0.584379580112694,0.686724057736235,0.319168644369501,0.865597192979959,0.786036633614807,0.518712816737583,0.515426403554725,0.428596120563834,0.546029560496618,0.768882204585727,0.465280275889723,0.392695905907117,0.324543049553796
-100,grasp,12m,OC,Trial1,0.25496237159623,0.639809967525132,0.640626452436822,0.375892657918146,0.621503372554497,0.35386742921372,0.568870487599168,0.682878210917469,0.312945713179633,0.868384538290914,0.771921348450519,0.503497920389911,0.529031092788341,0.453298640992546,0.53437455105048,0.765986008814748,0.454590653646945,0.380380705555631,0.331094513999106
-90,grasp,12m,OC,Trial1,0.264346708258353,0.637531679346027,0.629423065106096,0.350102422754539,0.61864148745674,0.353481149941943,0.555205227032663,0.668488460534101,0.308281172333966,0.871407185661339,0.757627572595063,0.487206235618649,0.543115136650369,0.478346888127998,0.522737285979282,0.76250525700438,0.442746585903683,0.36876569119012,0.34269431005117
-80,grasp,12m,OC,Trial1,0.276445651445216,0.629942420527726,0.616654304987754,0.319057051035905,0.613376318024592,0.355010122193316,0.54628462489799,0.648941744712418,0.305492385566017,0.873581561692255,0.743827512514725,0.470979950717655,0.556809070249869,0.503414225385849,0.511260369567902,0.758897966469857,0.429442893088921,0.358900063242436,0.357896409737328
-70,grasp,12m,OC,Trial1,0.293177206852909,0.618011644705838,0.603254065405546,0.286735743484604,0.603536750463055,0.359476804559407,0.539675329661608,0.627079629777729,0.305046169089361,0.873237031099871,0.732360895089124,0.452117195136577,0.569687742382581,0.52822794746595,0.500216086968937,0.753240056268844,0.417647151790201,0.35201918364596,0.374037095652256
-60,grasp,12m,OC,Trial1,0.311967728666284,0.602741525464124,0.589491193525207,0.254862910625611,0.592178755727328,0.366421427144129,0.533754957419107,0.605319539413586,0.307875357501056,0.867929029847017,0.724083770614054,0.433491059138174,0.58128655588826,0.552487815445926,0.490228532096062,0.746998175620222,0.410110818011481,0.350007810455728,0.389489625507947
-50,grasp,12m,OC,Trial1,0.330881950705974,0.585536941797996,0.575590125484372,0.225650830507153,0.57929461445353,0.375618986024625,0.527125387810922,0.584674960440538,0.315814393219639,0.859913166337673,0.717786179929249,0.415240499978886,0.59115679182376,0.575785262259952,0.481636258484927,0.741354535935391,0.401840186616999,0.35630215425733,0.404185913186214
-40,grasp,12m,OC,Trial1,0.354843279910518,0.567978942515443,0.561904973543559,0.200913808742969,0.564943244187595,0.38726880432086,0.520744524412226,0.565726673175805,0.329618103310386,0.84995282677264,0.713933596512364,0.3979512653664,0.598988299204461,0.597437245531104,0.475085748611546,0.736753107764006,0.393192921681745,0.368155841109577,0.418371004795484
-30,grasp,12m,OC,Trial1,0.378166525918756,0.555375682423122,0.548764413316919,0.18084202046574,0.549168747633157,0.401373331975767,0.512099172452894,0.547837146997179,0.347019604129394,0.838270865564482,0.710689880038738,0.382514927012214,0.604604244394498,0.615529371938926,0.473039024693853,0.733562042835519,0.38512016975653,0.382713312156504,0.432259895713272
-20,grasp,12m,OC,Trial1,0.400410285288605,0.544555148550119,0.536295061498124,0.16454295940912,0.532007383772217,0.416508206695016,0.501891054861438,0.529701422454488,0.364157910264922,0.825147584541772,0.707267858452954,0.368888718492599,0.607775164460204,0.629604345658225,0.475139638033642,0.73204172343384,0.378188206255938,0.397666165578573,0.445979648663787
-10,grasp,12m,OC,Trial1,0.421873869571281,0.536489826356577,0.525495196831527,0.153677886613918,0.513415374558341,0.431721978539416,0.491097339055941,0.510892142088747,0.377907191830672,0.810868210539361,0.704950640627147,0.355835990367777,0.608014477739852,0.639930120815755,0.479755586438086,0.732323373041751,0.372053191842754,0.412272901296624,0.459549436830035
0,grasp,12m,OC,Trial1,0.442866372266308,0.532354218707685,0.515463798223797,0.153127697384184,0.491063732863359,0.446680571007356,0.481145423841065,0.491258932906401,0.387919558749342,0.795690847635761,0.702672179093426,0.34256871812323,0.604387964489156,0.647766102838879,0.484206692938426,0.734416104923553,0.36763021176146,0.42436488285008,0.472843180407586
10,grasp,12m,OC,Trial1,0.463099352534332,0.529375757029351,0.506606860014182,0.16770254560242,0.467261304137299,0.459715507411433,0.472995478324164,0.47077391158893,0.398170042030156,0.779834541463646,0.699297940029889,0.328900553715793,0.595841199305645,0.653682019936239,0.488418017953263,0.738200975369494,0.371951489260121,0.43335977149619,0.48544833377434
20,grasp,12m,OC,Trial1,0.483693713917466,0.527003151178438,0.499546106664318,0.186667508201988,0.443024801693971,0.469501370760282,0.466681414426514,0.449499256481416,0.409057540265993,0.763487595184294,0.694702584951453,0.314793049845632,0.582409543272847,0.657031608984999,0.492249316229062,0.743506844185773,0.379653242091879,0.439953286563292,0.495931313338504
30,grasp,12m,OC,Trial1,0.504568177419713,0.524485228911915,0.494299005894938,0.206161987376818,0.41878826785438,0.477076403732477,0.46200156760633,0.427853951710537,0.419601430815359,0.746830867209366,0.689176226492064,0.300465855558995,0.566162691334204,0.66000529622674,0.496209931581401,0.750470227215709,0.390175410450727,0.445375963629458,0.502745471731949
40,grasp,12m,OC,Trial1,0.522845325159963,0.522034537118374,0.490270385819217,0.225415002021648,0.394849360483825,0.483784429218421,0.458427412136587,0.405622287530991,0.427429742391276,0.730066126151497,0.682969779281799,0.286849011204856,0.548124463479204,0.664941033570055,0.500824098772913,0.758974707193486,0.399694657791192,0.451474921434309,0.50601919322066
50,grasp,12m,OC,Trial1,0.537781403941931,0.519658134277535,0.487527704719849,0.244309156283886,0.371432902613291,0.488749837748564,0.455310738643214,0.384165635453156,0.432938009809135,0.713437494292895,0.676213153356397,0.274702077573669,0.52836475779064,0.668929691229699,0.506610576010627,0.768426489213323,0.409093241887856,0.457380927808014,0.504611025486653
60,grasp,12m,OC,Trial1,0.551232959787153,0.517247784319532,0.481686207628281,0.262572303053066,0.349074516783779,0.491450894338186,0.452145728817623,0.368059080658329,0.437389401060884,0.6972288677331,0.668857704236969,0.264378824713204,0.507570185054625,0.674194771936072,0.514085346242554,0.778240352935445,0.41744892278815,0.462424676507321,0.501208476373087
70,grasp,12m,OC,Trial1,0.563225802163281,0.514570735859785,0.474857635686821,0.279399914917604,0.328810419548409,0.490428939966214,0.448624759621268,0.359873712160622,0.441257403240563,0.681727882185762,0.660641090834758,0.255884707624782,0.487036392552945,0.680343783162591,0.523640772079253,0.787970183631495,0.423600760957589,0.46760489655672,0.496647949324728
80,grasp,12m,OC,Trial1,0.571934182052757,0.51141326553597,0.467759231149921,0.294133633484322,0.310861972823609,0.486090926631512,0.444594760958228,0.355874513317596,0.444754192414214,0.667190206373458,0.651343617460604,0.247683294120327,0.467409960537402,0.687719647033755,0.535380755490031,0.797273574692985,0.426694663410069,0.475606400232866,0.491386773754608
90,grasp,12m,OC,Trial1,0.57700792911078,0.507690869114324,0.460833480271419,0.306686312641529,0.296363691535453,0.477554097665987,0.440012463815224,0.354193358286631,0.447739865053859,0.654025990305501,0.641294532964267,0.237458031189786,0.449324354763548,0.696762084141299,0.549092295728435,0.805855257105861,0.426860824923987,0.483859619363172,0.485705573384715
100,grasp,12m,OC,Trial1,0.580586346752241,0.503504856918758,0.454602427198136,0.318090382285385,0.285291215487278,0.464676783474401,0.434922393333341,0.353764147767061,0.4500341173758,0.642220210376541,0.630404524625384,0.227513404101574,0.432070555854199,0.706805290303871,0.564340011079018,0.813439740737789,0.422967262069463,0.492189197526498,0.479671651840003
110,grasp,12m,OC,Trial1,0.583236101672212,0.499107997878321,0.450551272335075,0.330659922599053,0.276577911098957,0.450160681016113,0.429450816345664,0.353746435999455,0.451612413824003,0.628150445901198,0.618558387825928,0.220063090338087,0.415207479202103,0.715682472086787,0.580553678752066,0.819767169423999,0.416259570950591,0.498973761000217,0.472776124071588
120,grasp,12m,OC,Trial1,0.585529817739906,0.494895763960521,0.45140441209401,0.344132606720325,0.269734688486198,0.435080846961718,0.423802480927911,0.353459496073953,0.451329841265595,0.611735380574402,0.604494056969101,0.215723736064601,0.400122827069885,0.720912634420327,0.595365141479443,0.824610267186768,0.407136058274152,0.503014980148416,0.468331898975386
130,grasp,12m,OC,Trial1,0.587955161974356,0.491614057441701,0.456712452472092,0.357691856678494,0.264577555227696,0.419440414727339,0.418248045644397,0.352318361626983,0.446607622836065,0.594760704178938,0.588310584623152,0.21388088080083,0.389344253509265,0.720557759878651,0.610398577265023,0.827765753213051,0.394176234126089,0.501942333257503,0.466166197426059
140,grasp,12m,OC,Trial1,0.590644630558136,0.490194115451659,0.466526565411643,0.369675840277523,0.264259675830848,0.403115092577417,0.413108171414019,0.350475314842331,0.435406912125096,0.578999324608891,0.57109665802158,0.212948739957148,0.383930272207875,0.713781641245586,0.624982313701682,0.828689333740124,0.38069789417189,0.4984051696977,0.464306946152213
150,grasp,12m,OC,Trial1,0.593369931601192,0.488905767933422,0.477767317929182,0.377488862683207,0.269135592269782,0.385635113615984,0.408813691724705,0.352602340973704,0.420378739273978,0.566318739751698,0.554404076046978,0.210381279003165,0.382002559795967,0.700293366265012,0.639149779054367,0.827508798469728,0.368803760690593,0.493562742472186,0.463441074967281
160,grasp,12m,OC,Trial1,0.596346855498333,0.485898147906269,0.48882054980228,0.379268722343193,0.276607786154973,0.36945140911333,0.406422900312238,0.359827322394554,0.405253780573198,0.557576952532741,0.539041585359009,0.206776383697119,0.378633278033723,0.686307219958357,0.653420172374439,0.823931725707462,0.361408051134747,0.488425484629235,0.464015284308569
170,grasp,12m,OC,Trial1,0.598387905899151,0.48026016499792,0.498276606169853,0.378687059614378,0.288813511942811,0.355520006771392,0.407836708441051,0.370756392071736,0.392353318564164,0.550391676923014,0.526920789336863,0.200747523241915,0.376567833273096,0.677460616323955,0.668244285511896,0.817002861234842,0.360546317483968,0.484168945550412,0.466649532658762
180,grasp,12m,OC,Trial1,0.597013367003808,0.476022810120829,0.505383787788275,0.376030372357845,0.305831502707222,0.3440041647175,0.412475929049724,0.384261344620044,0.384546760422925,0.542928506131625,0.518549354599025,0.19608068192702,0.373932370027086,0.674553031389017,0.68384335962475,0.806701009441155,0.36728014415371,0.481685099936005,0.472826198481863
190,grasp,12m,OC,Trial1,0.591163573005326,0.475388987981468,0.510206575228086,0.371361193274261,0.327596865114168,0.335567565457251,0.418927168679761,0.399094181253024,0.381130204571218,0.539677585536007,0.512575869645751,0.191803409834194,0.370460840617593,0.674133906632555,0.700247302912193,0.794437507748931,0.380620576716082,0.481607802825563,0.483245633847815
200,grasp,12m,OC,Trial1,0.582305051282142,0.476106550401812,0.514060199821972,0.363046514621425,0.35018541640046,0.334596557691424,0.427557577580065,0.415922571435448,0.380173656022207,0.540441279225081,0.509677375792045,0.188042836513887,0.366220235699553,0.675293814442019,0.71707163049206,0.778830228430843,0.39958056847476,0.485005123793669,0.496155861701349
210,grasp,12m,OC,Trial1,0.571700437219338,0.4780443063203,0.516101206797019,0.34771511911365,0.373253229459693,0.335564983481969,0.438147564416113,0.434012262257509,0.380967096226592,0.543597865828328,0.510065869467204,0.18491211886229,0.361200833299124,0.676766535600819,0.733283995076913,0.762780836575055,0.421178865741617,0.490310644961617,0.510313631281161
220,grasp,12m,OC,Trial1,0.560442015899008,0.481276790824758,0.515106603898331,0.329486783314458,0.396164173275328,0.338058588705284,0.449908165326645,0.451951990306406,0.384003855549246,0.546973785433401,0.512010991921162,0.18231710745286,0.355277830834663,0.67783409464093,0.74854282596065,0.746299601242395,0.443480130057625,0.494950227320665,0.524976025093319
230,grasp,12m,OC,Trial1,0.552434670514273,0.485736651547395,0.514740434333619,0.311399405049426,0.418404718205934,0.341782881967352,0.462715294904138,0.467807109238363,0.388574680613283,0.55164660815029,0.513701089308732,0.179446561499673,0.348315319708208,0.677703534075499,0.763211409842553,0.729993761955738,0.462085191738174,0.498507137586699,0.539452477796201
240,grasp,12m,OC,Trial1,0.547630027473282,0.491152712125561,0.515488404240423,0.294239498706368,0.441264206643572,0.346150493314607,0.476656915616778,0.48415595044632,0.396167070276305,0.557021482726547,0.514352697642859,0.176832205071436,0.340308516712261,0.675094564922854,0.774444070384621,0.713998569786778,0.47812237327178,0.500910486346807,0.553029787803537
250,grasp,12m,OC,Trial1,0.546006459828041,0.497018337052764,0.517603644022339,0.277738549772315,0.465505285207382,0.350383594675591,0.491183161736075,0.501953902505205,0.405531891798179,0.562717716634279,0.514102105784962,0.175272348396102,0.331801877867666,0.669140390528793,0.782706020601102,0.698102771867487,0.492285891738375,0.502290337228335,0.565138495174065
