Time,Condition,Age,ChannelPair,connect_overtime_LA_EEG_12_P04_CTS_MTH_chanpair_12m.mat,connect_overtime_LA_EEG_12_P05_CTS_MTH_chanpair_12m.mat,connect_overtime_LA_EEG_12_P06_CTS_MTH_chanpair_12m.mat,connect_overtime_LA_EEG_12_P07_CTS_MTH_chanpair_12m.mat,connect_overtime_LA_EEG_12_P08_CTS_MTH_chanpair_12m.mat,connect_overtime_LA_EEG_12_P10_CTS_MTH_chanpair_12m.mat,connect_overtime_LA_EEG_12_P11_CTS_MTH_chanpair_12m.mat,connect_overtime_LA_EEG_12_P16_CTS_MTH_chanpair_12m.mat,connect_overtime_LA_EEG_12_P17_CTS_MTH_chanpair_12m.mat,connect_overtime_LA_EEG_12_P19_CTS_MTH_chanpair_12m.mat,connect_overtime_LA_EEG_12_P20_CTS_MTH_chanpair_12m.mat,connect_overtime_LA_EEG_12_P21_CTS_MTH_chanpair_12m.mat,connect_overtime_LA_EEG_12_P22_CTS_MTH_chanpair_12m.mat,connect_overtime_LA_EEG_12_P23_CTS_MTH_chanpair_12m.mat,connect_overtime_LA_EEG_12_P24_CTS_MTH_chanpair_12m.mat,connect_overtime_LA_EEG_12_P25_CTS_MTH_chanpair_12m.mat,connect_overtime_LA_EEG_12_P26_CTS_MTH_chanpair_12m.mat,connect_overtime_LA_EEG_12_P27_CTS_MTH_chanpair_12m.mat,connect_overtime_LA_EEG_12_P28_CTS_MTH_chanpair_12m.mat
-1000,cane,12m,OC,0.570380399430295,0.529522675007984,0.480842533033745,0.543755180008178,0.453098407590001,0.58545063042267,0.454177081914247,0.54630923282142,0.63037519875983,0.494159221058289,0.625911891589452,0.53010235452601,0.442054838906403,0.470742948163362,0.508969085822126,0.431693773261691,0.604775299461446,0.450793482954696,0.55067685477554
-990,cane,12m,OC,0.567663430308617,0.529508049075136,0.479387765672051,0.545313229059287,0.453703882275224,0.589715711930922,0.45661316583595,0.544769993823,0.627189821978142,0.493328532535211,0.630992122114735,0.531182399011001,0.443615442371055,0.470489475364159,0.514709214271937,0.426421457822559,0.60656550343606,0.451532974200341,0.550125068504219
-980,cane,12m,OC,0.564656873217138,0.530151374948603,0.47791861920382,0.545924922618112,0.454488948363194,0.593920200112232,0.458997901541138,0.544097364964509,0.624570207517917,0.492907597556758,0.635654551794702,0.532565315953613,0.444836916648746,0.469950373578555,0.520477279037026,0.421797140750052,0.60784305270698,0.452404966572325,0.549091252613675
-970,cane,12m,OC,0.561416638962845,0.531460471391267,0.476239726599731,0.546315611309989,0.455235958898606,0.597770870309718,0.461430656899001,0.543906387386653,0.622779146827065,0.492626693903225,0.64028278832879,0.533815959179235,0.445819271489376,0.469315110727552,0.525850214824355,0.417949314412544,0.608586505956801,0.453365886849351,0.547765034968545
-960,cane,12m,OC,0.557947402015162,0.533349354637965,0.474246407178987,0.546936719092607,0.455616145627233,0.601317600664786,0.463825912186025,0.543810962670244,0.621847702681231,0.492476579150243,0.644787580432097,0.535302984485609,0.446700508743601,0.468628642646983,0.530982799075094,0.414775616861114,0.608875802451802,0.4539378925234,0.546254923364557
-950,cane,12m,OC,0.554339917001134,0.535510532053006,0.472525065310112,0.547233486678037,0.455820327459655,0.604824599829254,0.465754749926953,0.543820155379791,0.621730833400761,0.492386111077147,0.648881049277771,0.537134464209822,0.447286495742809,0.467865985006462,0.535780269439784,0.412956920215068,0.607870810547299,0.4538812798864,0.544779973493758
-940,cane,12m,OC,0.550480609788692,0.537780396931174,0.471738232795617,0.546890800674391,0.455712503095339,0.608720008564993,0.467966380241149,0.543915261661792,0.622463116735914,0.492331388903205,0.652542366741073,0.539075218156351,0.447843357739024,0.467104531574658,0.540152433426175,0.413129922195672,0.605835955160213,0.45312274790305,0.543439049165239
-930,cane,12m,OC,0.546520412653064,0.539867670675501,0.471092069189158,0.545508241573945,0.455537914655258,0.613109547911632,0.471728846150696,0.544044399694539,0.624067651469836,0.49225406712098,0.655597035899187,0.540804688532729,0.448165103630192,0.466490534535527,0.54407622170706,0.415130278243721,0.603264753444849,0.452439590869554,0.542364777176546
-920,cane,12m,OC,0.542834171109706,0.541595069568012,0.470808007334242,0.543145891648102,0.455460029748251,0.617298372755666,0.476361315357261,0.544223227039801,0.626298082449843,0.49225871613674,0.659178551223977,0.542289693757661,0.448004524140334,0.465891209351241,0.547529565795538,0.417998740647214,0.600050419954561,0.451645358966375,0.541631163505105
-910,cane,12m,OC,0.53936395843397,0.543065636662278,0.47068409129859,0.539771960628103,0.455503777982754,0.620946285962843,0.481807503379331,0.544173742445458,0.628671460147602,0.492419164508924,0.663087620349697,0.543653255888993,0.44765720593319,0.465189526222296,0.550591904568525,0.421396883333982,0.59656770615717,0.450636074941264,0.540610984684611
-900,cane,12m,OC,0.536356789198297,0.544591908884681,0.470419313425795,0.535282057438538,0.455438929577756,0.624150792204265,0.487838347910528,0.543811860537032,0.630992703348105,0.492651515597134,0.667242597588384,0.544988389885129,0.446665577050775,0.464400433931116,0.553590544330838,0.425497628719452,0.593421760947398,0.449588385201481,0.539452649946957
-890,cane,12m,OC,0.534016764814645,0.546218669734014,0.470196240836515,0.52990679451231,0.455886560569257,0.627012086657825,0.494581192986346,0.54327678620294,0.633408191611221,0.492906436878884,0.671649076143673,0.546463330706936,0.445358162473406,0.463682978750929,0.556702607045916,0.429992237719991,0.590226632603164,0.448750376447961,0.537783717589943
-880,cane,12m,OC,0.532243778879434,0.547588177455715,0.469313639935558,0.523565790973862,0.457101018103548,0.629710228320289,0.502108475232047,0.542298527024622,0.635733997686092,0.493411413581737,0.676260496585145,0.548147666386956,0.443988157072582,0.463193026410388,0.559878272613232,0.435268087222302,0.586988924885175,0.44805294406384,0.536059994360787
-870,cane,12m,OC,0.530959986806989,0.548914688085928,0.467337278424175,0.516637131515217,0.45784477220147,0.632929703817261,0.510915203761253,0.540945154190033,0.63732043316579,0.494358502705472,0.6809977174448,0.549885333098321,0.442920600326179,0.462812244007626,0.563030033330734,0.44134864232658,0.58440950933863,0.447707148499875,0.534727070530614
-860,cane,12m,OC,0.530026393267413,0.549836873830114,0.464722773505574,0.510125327931498,0.45881048314904,0.636261211949782,0.520338878615505,0.539618733218757,0.637696167877561,0.495229603044685,0.68564696992102,0.551650559222934,0.44274457927238,0.462730249762991,0.56592225862749,0.44765959196839,0.583012622486026,0.44783458785469,0.534088517311704
-850,cane,12m,OC,0.529182576525275,0.550356371684021,0.461546050276837,0.50394936153121,0.460615507159464,0.639299966075433,0.529521545693492,0.538663760438527,0.637161634265022,0.495656361307444,0.69030105508022,0.553632474605009,0.442923282834845,0.462863441784531,0.56818217824464,0.453816320378837,0.581856693975712,0.448461383003078,0.534987938333753
-840,cane,12m,OC,0.528384176797198,0.550549737000495,0.457837863089504,0.498093339562637,0.462897292262432,0.642033188623039,0.538104142579801,0.538105440692614,0.63587853870044,0.495878298984573,0.695049952043387,0.555833061547256,0.443221163772561,0.463037569034635,0.569330513743316,0.459737388258566,0.581128030618139,0.449734308587144,0.537160913851219
-830,cane,12m,OC,0.527654089551466,0.55031271576955,0.45399489816409,0.492578049996283,0.465245140864647,0.644512988470187,0.545717171131579,0.537812354473599,0.633838161507664,0.495627521244144,0.699421017730315,0.55806473333916,0.443677291863139,0.46320063216262,0.569910769598518,0.465297770001189,0.580971677431508,0.451126569244816,0.540128983141502
-820,cane,12m,OC,0.527024628117725,0.549733624027654,0.450042550553672,0.487734781402594,0.467570100890703,0.646777186661051,0.551483209529171,0.537972176112089,0.630936701685363,0.495150410631624,0.703240819100863,0.560305097741879,0.444109057939759,0.463312644253805,0.569815792763421,0.470436793496091,0.581936248671499,0.452768830288626,0.543328441199857
-810,cane,12m,OC,0.526579254947703,0.54898419818152,0.446439204060316,0.483844494940548,0.469709430705092,0.648775317386963,0.555962574091636,0.538312800782201,0.627249526252139,0.494303303414777,0.706109227245456,0.562552480635245,0.444349086651196,0.46348803990061,0.569243912802468,0.475189489158471,0.583524233895779,0.454294761865951,0.546800129091638
-800,cane,12m,OC,0.526320507403713,0.548256603215023,0.44311894747872,0.480503715464768,0.471734323131536,0.650369307835814,0.55968645094592,0.53908648948864,0.622918001925972,0.493439378324588,0.709151030814844,0.564869166258296,0.444797747198111,0.463461790294921,0.567786121762476,0.479596267000851,0.585557618364662,0.455325737662528,0.550422982855915
-790,cane,12m,OC,0.526194383659515,0.547591304491656,0.439903653433357,0.477591630649256,0.473479255540608,0.651696384623906,0.562880320175127,0.540460974940185,0.618040756085676,0.492781984893026,0.712316992984388,0.567192020107266,0.445442481011672,0.463065102021781,0.565400676986904,0.483243690608718,0.588339812436703,0.45599404358524,0.553969498274863
-780,cane,12m,OC,0.526421673253852,0.546805609450145,0.437216593252592,0.474751110392498,0.474754282990782,0.653610255176985,0.565641656718835,0.542195043849856,0.613599866865949,0.492928746676144,0.714993625234369,0.569452326412346,0.446129015073704,0.462192079202941,0.562559309137621,0.486466858544127,0.591648913975392,0.456156933997236,0.55737637840805
-770,cane,12m,OC,0.526790179299661,0.546065320717878,0.435241786145951,0.471576536948146,0.475251987952592,0.654939210771639,0.567930056379372,0.543892229906884,0.609298950771045,0.493575131351835,0.71701283796047,0.571634423878465,0.447003602933762,0.460858181860631,0.55953174629739,0.48852909112433,0.595183109970467,0.455606173638914,0.560709388557814
-760,cane,12m,OC,0.527791267227591,0.545613324438605,0.433650343410726,0.46851624654188,0.474712732048243,0.655820784456785,0.568705593639166,0.545469401508732,0.604063846916384,0.494438557404633,0.718142935437952,0.573687630246331,0.448101471797817,0.458835909556038,0.556224401169015,0.490020225229667,0.598563018762781,0.454335684339332,0.563984604990862
-750,cane,12m,OC,0.529251805378701,0.54534891048734,0.431997754259178,0.465899892569382,0.473543850479134,0.656538240978973,0.567983711101235,0.547265363688568,0.598320350016944,0.49546744234823,0.718462400460006,0.57571497378472,0.448992654775263,0.45613629002432,0.552706410753075,0.490620269195704,0.601613237089466,0.452369158156106,0.567578927929761
-740,cane,12m,OC,0.5306909993232,0.545474464390118,0.430448814630318,0.463547691991794,0.47199326620486,0.65788435150609,0.566273776023026,0.549442445954174,0.591712760845465,0.496555400844854,0.717679611616895,0.577801623690692,0.449434620738541,0.452725045109049,0.549327731962798,0.490067564316283,0.604448298277445,0.450602476151828,0.571281694546913
-730,cane,12m,OC,0.531852561855772,0.546087525156983,0.429509887007695,0.461328601701489,0.470213033765576,0.65958641664592,0.563570348247083,0.552026155517882,0.584975385054909,0.497805855076754,0.715512642263083,0.579810599041171,0.449109995832331,0.449284580150503,0.546441682375621,0.488218105055206,0.607032845686964,0.448632614264671,0.574948472377475
-720,cane,12m,OC,0.533089347275487,0.546910589622692,0.429456212395417,0.459193220337442,0.468298107715275,0.66130729365214,0.559926901430024,0.554889873683547,0.578234224816149,0.499465472140467,0.712196039580127,0.581780669694244,0.448031826516328,0.445763419932912,0.544409670212844,0.485608972349669,0.609221907104356,0.446464094234519,0.578905312977823
-710,cane,12m,OC,0.534360586163582,0.547562965365136,0.429824004342091,0.457290960713438,0.466801333314908,0.662619137137259,0.555418642493538,0.557991687116426,0.571502421384221,0.501770489875962,0.708148674906099,0.583788317057887,0.446525926909184,0.44189453194917,0.543336646380925,0.482433314307177,0.611249323071037,0.444102297810435,0.583068647013652
-700,cane,12m,OC,0.535564953440736,0.548430840079855,0.430800675628257,0.455303864768457,0.465403369380915,0.663126466080349,0.550098015240174,0.56107050784909,0.564891972330787,0.50424802714818,0.703759417425073,0.585702169052011,0.444786370864632,0.437999883139563,0.542816436259392,0.478758412522779,0.613279224174225,0.441964436917019,0.587442544692066
-690,cane,12m,OC,0.536790497977241,0.549803075063658,0.43251202035944,0.452562921149776,0.463884876081542,0.66288087613134,0.544036326404817,0.563972705667165,0.558667602824759,0.506475467010376,0.698910923340947,0.587518847599019,0.442989054950525,0.434345529546397,0.542421956151013,0.475045290725322,0.615333439980318,0.440790128589521,0.591973142637355
-680,cane,12m,OC,0.538314528415601,0.551561415749891,0.435029385921497,0.449418514120875,0.462387033518062,0.661849606426384,0.537330549472094,0.566551215240638,0.55311082084567,0.508957672247642,0.693136511457945,0.589212970082656,0.441139808393182,0.431472423966075,0.542155301885546,0.471616529562549,0.61759942704158,0.440652467559372,0.596614705034866
-670,cane,12m,OC,0.540117603446963,0.554004556406006,0.438349963723284,0.445887542432538,0.460732448018735,0.660051884037855,0.530330289097571,0.568931957447309,0.548734812406053,0.512087919573031,0.68721669218344,0.591107863748012,0.43950014635957,0.429403419618043,0.542002201314238,0.469076416460439,0.620176479093178,0.441321719154951,0.60122871276113
-660,cane,12m,OC,0.541828592491987,0.556700077833306,0.442404874403521,0.44213163772043,0.458930717881314,0.657626121699624,0.523120296568026,0.570816484304715,0.545929789233381,0.515992609403393,0.681511048746915,0.593098968049186,0.43789080852945,0.428647350398637,0.542009191849796,0.467475509351969,0.622477598010193,0.442792043896929,0.605505891981782
-650,cane,12m,OC,0.543384080431298,0.559184671852968,0.447085952136119,0.438603567521166,0.456905626209028,0.654687058908175,0.516088948990256,0.571897747832722,0.54461310617074,0.520374091219859,0.675923398833439,0.594690493998744,0.435740207397176,0.429214947816513,0.541709188762159,0.466009475855806,0.62535778582357,0.445605663924427,0.60859460132076
-640,cane,12m,OC,0.544925091228412,0.561501648826251,0.452673484065597,0.435252143393551,0.455071639139147,0.650592184297109,0.50979547444662,0.572056288729667,0.543871864541315,0.525024832044945,0.670530918926105,0.595697220437476,0.433323947740776,0.431214617678019,0.541339828647664,0.464883695544058,0.628604277244522,0.448891710264316,0.610054505812347
-630,cane,12m,OC,0.546452800523256,0.563487480178514,0.45857190987867,0.43193601415999,0.453427837855703,0.645796945432041,0.503885985895809,0.57147690010306,0.543559427173033,0.529993325900834,0.665124965481652,0.596443333092783,0.431188025411905,0.434507951311204,0.540823716949156,0.463868453123439,0.63149993218069,0.452317566563844,0.611266977927143
-620,cane,12m,OC,0.548481608147623,0.565813213516201,0.464160429421228,0.429044147038055,0.452068000936813,0.640481743401492,0.498915803786063,0.570553207359124,0.543533356811728,0.534893152663336,0.659799459033422,0.597149458485446,0.429953023806207,0.438563637439952,0.54027681826941,0.463465255094676,0.634161475884645,0.456262160692828,0.611689558465395
-610,cane,12m,OC,0.550562267115032,0.568517240994464,0.468795904991641,0.427000649623114,0.450842738340595,0.634905346261313,0.494354788694869,0.569577622027898,0.543648533098922,0.539707771710249,0.654746094975512,0.597748152739989,0.42976039733323,0.443260851753014,0.539726049497718,0.464114776194735,0.636637010202457,0.460691427464995,0.611369329185182
-600,cane,12m,OC,0.552524173657806,0.571259151699501,0.472809581411485,0.425357497544915,0.449752690793274,0.628745357621356,0.4899822976945,0.568390306728307,0.54375078182306,0.54480124974225,0.649854974337324,0.5984442004788,0.430149698770158,0.448244910720497,0.538660593317772,0.465807147295688,0.638366301061448,0.465409774703885,0.610536391286047
-590,cane,12m,OC,0.554411122833003,0.574108711197566,0.476255468098248,0.424432315939242,0.44885106229478,0.622555241009448,0.485838794478683,0.566718650144462,0.54364354922497,0.550013345308282,0.645042268229654,0.59908014405497,0.431066018843589,0.453181254411413,0.536934724950151,0.467759110605509,0.639385986109323,0.470353076409578,0.609363224515824
-580,cane,12m,OC,0.556230534187608,0.577184070571566,0.479226631319774,0.424423213134225,0.448130260051109,0.616783659779813,0.482072411050371,0.564940678456465,0.542828236771115,0.555221649235962,0.640395745534535,0.599465102297133,0.432502324297067,0.458013305693298,0.534867042446516,0.47050812231213,0.639563729573937,0.475321783750008,0.608019165253365
-570,cane,12m,OC,0.557896482516261,0.580033111394045,0.481487529775102,0.425240387123338,0.448026390181151,0.610984834110416,0.479852986898831,0.563404581786629,0.541073201837944,0.560418775629017,0.636133826422494,0.599804875080885,0.434332581446496,0.462944496214207,0.532695232331943,0.473508051181224,0.639172068541005,0.479960264513612,0.606178699787882
-560,cane,12m,OC,0.559378225414336,0.582993387509847,0.483029753585559,0.426720239010873,0.448310068751252,0.605821957143693,0.479554736427673,0.56195967430403,0.53917458971952,0.565330730825574,0.632177747608678,0.599938308517356,0.436199688528757,0.468081760236739,0.530529288342676,0.476709566666443,0.638243883916474,0.484382314152917,0.603770067184197
-550,cane,12m,OC,0.560867884387302,0.586183165365655,0.483422896190582,0.428796949867699,0.448407836864476,0.60142889298562,0.479643492491492,0.56065991317755,0.537381427389015,0.569865152821938,0.628262010903167,0.599736068573462,0.438254465799354,0.473665688506504,0.528854229178609,0.479995403703637,0.636565283980266,0.488797311701727,0.601409859946114
-540,cane,12m,OC,0.562491216742915,0.589360065370238,0.482776429180568,0.431452040555618,0.44853647029009,0.597540510638042,0.479885923862265,0.559665151641373,0.535450287449728,0.574111398665,0.624139967631536,0.599351940411812,0.440553032197454,0.479378285790496,0.528207689263419,0.482709397876515,0.634224047093173,0.49332170278691,0.598899556812384
-530,cane,12m,OC,0.564170512910888,0.591933297215223,0.481730423613376,0.434573403150118,0.448694383368409,0.593801206640455,0.480045582185306,0.559090546113202,0.533417523812673,0.577987708592786,0.620024284814244,0.598820900900216,0.44330717342759,0.484889969783018,0.528440603905743,0.484995975308961,0.631068444330604,0.497936578221436,0.596428514590415
-520,cane,12m,OC,0.565926006372474,0.594212459145098,0.480394196398945,0.438145871511799,0.44905498096221,0.589986142257547,0.480051700139441,0.558993280174024,0.531363039512829,0.581370666019755,0.616267801150401,0.597762219932294,0.446887417979899,0.490151129755647,0.529135312338312,0.486773531214882,0.627702753053387,0.502459348037771,0.594159695416483
-510,cane,12m,OC,0.567623159193926,0.59626424871204,0.480073945092228,0.442021306584337,0.449984297256308,0.58582252095475,0.479918725471464,0.559174222422453,0.529369462797456,0.584299428119538,0.612492699400917,0.596129892481951,0.450368458350404,0.495102951095048,0.53014202107232,0.488057845998004,0.624499143325017,0.506513839510941,0.59160540359076
-500,cane,12m,OC,0.56926952977243,0.597669121069439,0.479066867747919,0.445731946207289,0.450935726072946,0.581229027454898,0.479779661710226,0.559296079372232,0.527488319036026,0.586653625732805,0.608805839552334,0.594114025703991,0.453384787611881,0.499345995215265,0.531271563692483,0.488720697651971,0.621050259115673,0.510340031467572,0.588699275516985
-490,cane,12m,OC,0.570947234087989,0.598549748119945,0.477235913707879,0.449254405577107,0.45158106228641,0.576250568754654,0.479876572364954,0.559489157517112,0.525772109493571,0.588358968165936,0.605092402862548,0.591880974132394,0.456038128412979,0.502972424477844,0.532349820173661,0.489192995262416,0.617224108551775,0.514120095363207,0.584960901547931
-480,cane,12m,OC,0.572915665177092,0.599202292784014,0.475706397172586,0.452821270288223,0.451611340824757,0.570606315766627,0.48067724204971,0.559861774616133,0.524359152949552,0.589339394435573,0.601373912696599,0.58929557358094,0.458404742475848,0.506158227568068,0.533463076627628,0.489661335220984,0.613026131364782,0.517656340210798,0.581057017384329
-470,cane,12m,OC,0.575468575705405,0.599719982040001,0.474274829894628,0.456841893650523,0.451355420426501,0.564368335314644,0.483238327639663,0.560349831790764,0.523444128329925,0.589221797785242,0.597583741386656,0.586258122485243,0.460847163188345,0.509088485787287,0.534688914726085,0.490525558267049,0.608533192273976,0.520783056284016,0.577746691175882
-460,cane,12m,OC,0.578176508597666,0.599786242095137,0.472492866532061,0.460821191082725,0.450767661975188,0.557927605909247,0.487235298184015,0.560851434717517,0.523064633832579,0.588172778968243,0.59362384839101,0.582819884567039,0.463143395324624,0.511699626142971,0.536071414302448,0.49172531334501,0.60358320633338,0.5239678216618,0.574885543034611
-450,cane,12m,OC,0.580850035991838,0.599407434289588,0.469996814107734,0.464033597831499,0.44944285531499,0.550981101883839,0.492249671673364,0.561052430249144,0.523209727775311,0.586159875521553,0.589746666505059,0.578963421597213,0.465634720159997,0.513920855070988,0.537418573159413,0.492937030050844,0.598703047124872,0.526445882450518,0.571374874663721
-440,cane,12m,OC,0.583571092193108,0.598565303078398,0.466288531323837,0.466746685739897,0.44727100366127,0.54397665112724,0.498104171722725,0.560871826922949,0.524072512349699,0.583256338681253,0.586136824878591,0.57463165758541,0.468670410737479,0.515818274803973,0.538937970277473,0.493862708234704,0.593820634959198,0.528628716035647,0.567690585809353
-430,cane,12m,OC,0.586383411058968,0.597401464320622,0.462186891623256,0.468805024766173,0.444483275374834,0.536935277404885,0.504750127143714,0.560720404011371,0.525640131508421,0.579763153799523,0.582463120238644,0.569808166640783,0.47217311096271,0.517506511148847,0.540329492123368,0.494392644838764,0.588499897432763,0.53063903885639,0.563648710527276
-420,cane,12m,OC,0.589827167447943,0.59608405796492,0.458613242728316,0.471007858340689,0.441365280978808,0.530281304406591,0.512169564344597,0.560702846220393,0.52731936674633,0.576057891218002,0.578513759265033,0.564455028059516,0.476168310491479,0.519064274624822,0.541260005722672,0.494234697733431,0.584437445048723,0.533017456721151,0.559211997329539
-410,cane,12m,OC,0.593968871324197,0.59456214083178,0.455834026194471,0.473178952933942,0.438256473557857,0.523693193432393,0.520208353483628,0.560359933783195,0.528692269452325,0.572243253488872,0.573824342269304,0.558917966454227,0.480670610647753,0.520267291865708,0.541829800219515,0.493746100527911,0.581045272725829,0.535442092795161,0.554445169503684
-400,cane,12m,OC,0.599024621507709,0.59298213274514,0.45489073861918,0.474603324912692,0.435324060601999,0.517389999976794,0.528493240814637,0.559581190859297,0.530139989929609,0.568406089568678,0.568255647080156,0.553219924084018,0.484878598333826,0.521070557322272,0.542297034261628,0.492052595823988,0.577941388708757,0.537771918261965,0.549692274435497
-390,cane,12m,OC,0.604530966975431,0.59115060465863,0.45530598319329,0.475790299824308,0.432703366550267,0.510970389304621,0.536335557497159,0.558706255094923,0.531486857937694,0.564607016013773,0.561983421597034,0.54754460402409,0.488714376273833,0.521346179537385,0.5421443717388,0.490123736472977,0.575234836126569,0.540019006550251,0.54515344186322
-380,cane,12m,OC,0.609911725832517,0.589063201141867,0.457256638420389,0.47646244219383,0.430374615646024,0.504442565709975,0.543186132016367,0.558016508554981,0.532662632986654,0.560939272862298,0.555257151143217,0.542010266045242,0.491944949887446,0.521325161488303,0.541545421000573,0.488077319358163,0.573224357284004,0.541735721495762,0.540925286390893
-370,cane,12m,OC,0.615034623680557,0.586745174511598,0.460442377890186,0.476534579561175,0.428389131978229,0.498583881840289,0.549577457767897,0.557335124877474,0.533813611399649,0.557271347599964,0.548472099760174,0.536705336066507,0.494388451603492,0.521081759110976,0.540752735041111,0.486104432684195,0.572037117935938,0.543251692841105,0.537089152559657
-360,cane,12m,OC,0.619738588781316,0.584189793747407,0.463577640756426,0.476325458201329,0.427104040247189,0.493738916176554,0.55550660018981,0.556264362415251,0.535141510304639,0.553481528447442,0.541347351281229,0.531761551628828,0.49649446693386,0.520426503324542,0.539717304683487,0.484316961917466,0.571404975005076,0.544597694933013,0.533967557648671
-350,cane,12m,OC,0.623456860182808,0.581323146169212,0.467104610238439,0.475760361351861,0.426531071780394,0.489802445258695,0.561024565679706,0.555212404880105,0.536793783494142,0.549615977840207,0.534268488773956,0.52709517975815,0.498410839298998,0.519382534223124,0.538495797426905,0.483276276509621,0.570923861709487,0.546036628242126,0.531782222613489
-340,cane,12m,OC,0.626243019460119,0.578178322006489,0.470779118013011,0.475196927145434,0.426653115351679,0.486675335020692,0.566159180199039,0.55461582065259,0.538562465774301,0.545752400790951,0.527200774121588,0.522996879881862,0.500324008083716,0.518338251414844,0.537073342411893,0.483144901835584,0.570453573549732,0.547295492253895,0.530535808073992
-330,cane,12m,OC,0.628299977955164,0.574891854270534,0.474451299074123,0.475695332103231,0.427014411421752,0.484604295654303,0.571020807693692,0.554528502498643,0.54001136082001,0.54230236976035,0.519984745698816,0.519104777130301,0.502335818018791,0.517721741308222,0.535578932049763,0.483110337648379,0.570266375803788,0.548035172240808,0.530065966546356
-320,cane,12m,OC,0.629455630985902,0.571160775933825,0.478086751693496,0.477587463814665,0.427469878768714,0.483415495480475,0.57573945469145,0.554846202290943,0.541087279783569,0.538991089023497,0.512796998639348,0.515500057244333,0.504151016047918,0.517646257022377,0.534076116054054,0.483290282583961,0.570281402645613,0.548236145068639,0.530022679349222
-310,cane,12m,OC,0.629456181534656,0.566977208977588,0.481514218368525,0.480586496985213,0.427414914098902,0.483281532284894,0.580382915408014,0.55529622295379,0.541893848924385,0.536107404752911,0.50592038435006,0.512146920406827,0.505435318918737,0.517883027920645,0.532833482358256,0.483479212176472,0.570242833952027,0.54812798280387,0.530087828338929
-300,cane,12m,OC,0.6286660742413,0.562395467374935,0.484597966548549,0.484341152831519,0.42742239136096,0.484254157982006,0.584927766169962,0.555454360080639,0.542251629813002,0.533799995923017,0.499452487893889,0.50886283374552,0.506247472667353,0.51844755329719,0.532425005666447,0.483779684570446,0.570219663622914,0.54798163927272,0.530014794812722
-290,cane,12m,OC,0.627192238807181,0.557933824876856,0.487563348791846,0.488225144675652,0.427636086804013,0.486238930313088,0.588740690620033,0.555526404769567,0.54180650772715,0.532133284696897,0.493454752710205,0.505524367457712,0.506599169387639,0.519222756937559,0.532442595803227,0.483882418049102,0.570195757678922,0.548038201130368,0.529459196300871
-280,cane,12m,OC,0.625001258755172,0.553262194186311,0.489931274709205,0.492280690766531,0.427995992255089,0.489125116623431,0.592467621663982,0.555636278080647,0.540469514674516,0.531494146187513,0.487989858061502,0.50246385029558,0.506852800069647,0.52051592887249,0.533380473950438,0.483724345008361,0.57034988627711,0.54822939551958,0.527830270350251
-270,cane,12m,OC,0.622253462982569,0.548847955152734,0.49086467396887,0.49629091735044,0.428476048539333,0.492201648705781,0.596757570672476,0.555651490163973,0.538452293030795,0.531465154073128,0.48309208408803,0.499980522723157,0.507077275449305,0.521772957869807,0.534898334186003,0.48316765162895,0.570251215941111,0.548715928163223,0.524984218377835
-260,cane,12m,OC,0.61897724461116,0.544175608416437,0.490790072110919,0.499772525785594,0.429146857671978,0.495189594097533,0.60112669151246,0.555546672143839,0.536296423805207,0.531608772169029,0.47874429780115,0.498123873681284,0.507130346510193,0.522940921098268,0.536573478637605,0.482050498007336,0.569791649582248,0.549166947084994,0.521743889603018
-250,cane,12m,OC,0.615078006775606,0.539139946378374,0.489981734771761,0.502209305377022,0.430016017242794,0.497477544648477,0.604464123473343,0.555086705253126,0.534154867780523,0.532341337923667,0.474938628981254,0.49675398322378,0.507288721038025,0.524302256862233,0.538179981958058,0.480348404689097,0.56915473255643,0.549443633068898,0.51857131859562
-240,cane,12m,OC,0.610943445624054,0.53414609663818,0.488683612990134,0.504247607723254,0.43086340168224,0.49916443695115,0.606547281634522,0.554798959548794,0.532108516014434,0.533611002043724,0.471738332017961,0.495640747252719,0.50760499023995,0.52576856674406,0.539419317367802,0.478208835981076,0.568659132572054,0.54961109773757,0.515733064958881
-230,cane,12m,OC,0.606725885437982,0.529351516182076,0.487397302937099,0.50596668144322,0.431788238058899,0.500326236347348,0.607844529944138,0.554805708527769,0.529859225871595,0.535213577492671,0.46875195859834,0.49507184203928,0.507999498742609,0.527286811605107,0.539979883708141,0.475834450404414,0.568363739772432,0.549648942436314,0.513426597757684
-220,cane,12m,OC,0.60250436484859,0.524848042297296,0.485873895754294,0.50692530727304,0.432415354860138,0.500737946109591,0.608424766189018,0.554795615214089,0.527609640991941,0.53721383931097,0.465666288729935,0.494951450380751,0.508576595017028,0.528839487532012,0.540393125553714,0.473645849680437,0.567851643065399,0.549442279566124,0.511719912813889
-210,cane,12m,OC,0.59834857022058,0.520710453214641,0.484402078324781,0.506658476297001,0.432872650995367,0.500488233988774,0.60831569716751,0.55465303512568,0.525555833139231,0.539936136567472,0.462393020058252,0.495286570010046,0.509028561577265,0.530509218628002,0.540226644815947,0.471594035216174,0.567323983201848,0.549238806493604,0.510378254307662
-200,cane,12m,OC,0.594259073300676,0.517143415215738,0.483068903164417,0.505825864603487,0.432833716468759,0.499531496725508,0.607258777818805,0.554520085541557,0.523953882400047,0.543291440163809,0.459043961441545,0.496081946991757,0.509811153341211,0.532331306734989,0.539164014855238,0.469448764175115,0.566884840642736,0.548921625386425,0.509323455586492
-190,cane,12m,OC,0.590780039774642,0.51414965287691,0.481599010617474,0.505173250982271,0.432691350172108,0.498124111533319,0.605047613588449,0.554662584558523,0.52324148521374,0.546654559168658,0.456203545746935,0.497289484545316,0.510346721603673,0.534186537210279,0.537301123161736,0.467770090052711,0.566683999758306,0.548409586913398,0.508381418324213
-180,cane,12m,OC,0.588117217623199,0.511803012046308,0.480149060808959,0.504552931292747,0.432492668390325,0.496359948695675,0.60313278531742,0.554972942467379,0.52318121713478,0.550217735190779,0.453101129859768,0.498676564926808,0.510377113093151,0.536292662930151,0.534793729378574,0.466201515437022,0.566493236357156,0.547350159390618,0.507165253553766
-170,cane,12m,OC,0.586180957632883,0.510292997386992,0.479240581025449,0.504081670190633,0.432139538056836,0.494020767816208,0.601241907724918,0.555288819144154,0.522648270457945,0.554338312251969,0.45042193044921,0.500549998766987,0.510647227211417,0.538731083344248,0.53171588642957,0.464199150691872,0.56643140320511,0.545786290107465,0.506305381587107
-160,cane,12m,OC,0.585285718891163,0.509542928788167,0.478689127096853,0.503867821476883,0.431459403826927,0.49107730835385,0.599299096838674,0.555606441706805,0.522227708494722,0.559280147745514,0.448899909989514,0.502822468736313,0.511244286173047,0.541380622918953,0.528700099469094,0.462376947809635,0.566569027672585,0.544315522254356,0.505955053728147
-150,cane,12m,OC,0.58477373195984,0.509673309227183,0.478570885957853,0.503394283739075,0.430763455312058,0.488402352485333,0.597602476342966,0.556241011007418,0.521495840051493,0.564389591591061,0.449259775364775,0.505246553230577,0.511794032549124,0.543983552590128,0.525725496190874,0.460751328996944,0.56676922450211,0.543281169878392,0.506278234582264
-140,cane,12m,OC,0.584646448196877,0.5108535899503,0.47857315059484,0.503046141893748,0.430337763572309,0.486269739846817,0.595779247945403,0.557091939069809,0.520293352931037,0.569674251671398,0.451442348393351,0.507658766357567,0.512100573337083,0.546314529890228,0.522753119822085,0.459240437338372,0.566780145649543,0.54259528695023,0.50694269488669
-130,cane,12m,OC,0.584774124695847,0.512634362934288,0.478443445318647,0.50330302076468,0.430225418485962,0.485230021267007,0.593638676583344,0.558104863688921,0.518812415866841,0.574734871481635,0.455054780817093,0.509858437291215,0.511979221297674,0.548561530720434,0.520219293348515,0.457295635367289,0.566732447487597,0.542604967263368,0.507923769599322
-120,cane,12m,OC,0.585150579707908,0.514669643484626,0.478524232586614,0.503963133274062,0.430536330819543,0.485025289949935,0.59114222596,0.559070961425145,0.517126009166425,0.579471864775217,0.459872540415174,0.511595362642015,0.511550950798727,0.550758900281646,0.517855512524058,0.455390330981244,0.566705571231554,0.542817135435862,0.509202879954587
-110,cane,12m,OC,0.585893679997978,0.517063064867825,0.478831707762277,0.504560554890877,0.430630115481656,0.484886036426916,0.588783887915259,0.559791677270147,0.515255517512126,0.58339512331356,0.464582308045841,0.512964829407309,0.510948166776874,0.553131037387785,0.51607098798705,0.453795299088327,0.566701357785025,0.543425539446929,0.510579250673864
-100,cane,12m,OC,0.586736449328555,0.519705090496687,0.479365068469246,0.505189516384825,0.430531058009727,0.484849319494854,0.586438276750427,0.560335303685804,0.513161109757556,0.585915207996639,0.469809726736282,0.514129656543529,0.509875695297817,0.555629034635443,0.515348917848795,0.452955991033588,0.566884032066292,0.544831793215771,0.511459925106723
-90,cane,12m,OC,0.587943715339871,0.522586282857996,0.48007357335047,0.505608347456316,0.43067645264918,0.485101255234291,0.584324127179545,0.560907340819705,0.510884583028542,0.587486853587122,0.474627565847718,0.515161941458897,0.508397842217413,0.557938254771706,0.515569065321057,0.453003489213314,0.567206608830929,0.546881545390532,0.512053951286801
-80,cane,12m,OC,0.589545085208628,0.52567990657405,0.480755504521718,0.505858451158048,0.431293560053766,0.485987175129762,0.581867376679503,0.561769193946926,0.507849111300441,0.588058715856562,0.478716311339099,0.516270858487463,0.506789424649894,0.559746009357506,0.516605658662039,0.454126248745813,0.567487728011488,0.549389427555203,0.512610576636023
-70,cane,12m,OC,0.591412146992825,0.528664154114745,0.480833105301598,0.506344947113319,0.432788899786636,0.487729641119444,0.57957151060431,0.562861462821939,0.504501659479084,0.587876336620365,0.482007813311955,0.517448180073308,0.505087785416407,0.560897625377507,0.518075265554485,0.455912368516433,0.567618731222491,0.552334533498219,0.512948872032523
-60,cane,12m,OC,0.593708495314847,0.531919229764329,0.480549122575443,0.507677370769234,0.434791297556327,0.490471587257571,0.577492883235038,0.563949180053551,0.500903351189296,0.587382142175995,0.484338452397355,0.518444840366846,0.503216390530227,0.561494250143532,0.519292434522979,0.457515663625245,0.567950135814412,0.555271414033883,0.513193658841962
-50,cane,12m,OC,0.596078650518995,0.53517660055623,0.480254677262017,0.509503935562245,0.436854806181047,0.493819079078915,0.575886320122619,0.564939922198622,0.497316627970005,0.586760907991943,0.485543719441242,0.519183568809741,0.501166223159021,0.561472457581552,0.520088724757246,0.457777889734278,0.568750652824555,0.557714344355525,0.513708563515231
-40,cane,12m,OC,0.598590261618249,0.537921009817797,0.479702837408573,0.51150062263612,0.438625834742524,0.497265136148333,0.574637639558503,0.565741725195306,0.494000086819287,0.585922211754592,0.485486400439745,0.519606010591443,0.49927043658864,0.561722681002706,0.520359942250794,0.456917388529849,0.570062792140752,0.559975031901207,0.514499963927396
-30,cane,12m,OC,0.601285266081832,0.53999319633684,0.47876074854834,0.513348424173718,0.440503594621658,0.50128057958046,0.573115369042003,0.566261846972406,0.491111985871545,0.585047243323044,0.484064322437574,0.51989149232653,0.498203726349291,0.561997909435207,0.520393889125435,0.455488508355497,0.571367313140229,0.561947677720505,0.515550168322745
-20,cane,12m,OC,0.603932564712079,0.541250013265097,0.477349296012834,0.515038091562833,0.442631098223989,0.505643032766304,0.57147413714334,0.566462237459483,0.48875676076324,0.584405831503867,0.481284173174837,0.520149152340483,0.497924093495498,0.561478500753175,0.520561946501282,0.454928372014847,0.572243529157267,0.563507638281112,0.517082197247207
-10,cane,12m,OC,0.606456974990952,0.541746578728121,0.475279673385392,0.516664528954557,0.444626089314921,0.510182053548394,0.56971257165006,0.567006921204254,0.487105578091014,0.583510520087317,0.476981437045495,0.5201989540902,0.49867540060508,0.560376700163885,0.521054379087281,0.45446639056416,0.573009911618511,0.564240809652444,0.518914347134009
0,cane,12m,OC,0.608821331900231,0.541731765712874,0.472632249200848,0.517758232716197,0.446827498393247,0.514747980402463,0.567805232582344,0.567867527694058,0.486393116852042,0.582228440614945,0.471290532073724,0.520214644237128,0.500427183836983,0.558996428505185,0.521533069944544,0.453637457825285,0.573594946211007,0.564029955801829,0.521030046956279
10,cane,12m,OC,0.611069507514278,0.541236707899507,0.469803079041888,0.517810933794365,0.449098190328013,0.519422988057638,0.565659423802972,0.569080799389779,0.486600492608653,0.580463898255378,0.465261275285613,0.520987913567779,0.502964664145234,0.557221772876304,0.522161948297187,0.452999694218142,0.574345139414302,0.56331039524245,0.523398287206218
20,cane,12m,OC,0.613151588561696,0.540450548551544,0.466626528176902,0.517240965900578,0.451039664220181,0.523788399903507,0.563259837669146,0.570458527790514,0.487313358206524,0.578344570371776,0.45913601711908,0.522486855047502,0.505835306838984,0.555144465791058,0.522886812847642,0.452728216544349,0.574997536902607,0.56225475498309,0.526270360196267
30,cane,12m,OC,0.614959823290137,0.53939366636685,0.463398072320667,0.516344790409413,0.452640761504697,0.527421259201262,0.560642174342001,0.571959343783365,0.487776897328395,0.575860440007536,0.453582205030349,0.524380635179029,0.508746631463143,0.55296851231255,0.523479329139487,0.452182002531834,0.575089364969207,0.560751959836565,0.529913424662727
40,cane,12m,OC,0.616503220712137,0.538279735441848,0.460701752079037,0.515053403219009,0.453609466180689,0.530793594478862,0.557875472863454,0.573822356650519,0.488036794725815,0.572828434382198,0.448924191293848,0.526541143379994,0.511997921892651,0.550777254964968,0.523937831243621,0.452241726649526,0.574895592152621,0.558856632141921,0.534144374765809
50,cane,12m,OC,0.617765608994759,0.536728171215689,0.459303958305868,0.513319888723332,0.453800297952115,0.53380777878622,0.554951319170605,0.576035378912138,0.48890764058547,0.569318975065553,0.445299834501421,0.528880479307273,0.515607265278927,0.548438607947286,0.52384552350905,0.453429400811481,0.574732380665621,0.556729625079943,0.538164854126901
60,cane,12m,OC,0.618321424183159,0.534656526450092,0.46021164080735,0.511170198218606,0.453405747815601,0.536722420363394,0.551330043693345,0.578580733516463,0.49036010012376,0.565585382499245,0.442760858356843,0.53122548049675,0.519151235068299,0.545950518226914,0.523199131357509,0.455816470983342,0.573916528388627,0.554575773909941,0.541134294563488
70,cane,12m,OC,0.618209811115305,0.532021980391121,0.462675906854041,0.508803674938736,0.452157904545008,0.539478720576726,0.547850844609285,0.581726234824459,0.492152987563338,0.561919799367401,0.441530000590784,0.533495007033631,0.522609914166572,0.543215452154561,0.522042612952566,0.459437716435146,0.572782891254956,0.552538601455909,0.543494175482393
80,cane,12m,OC,0.617617972539453,0.529202307903573,0.46568102273838,0.506861559987612,0.450329009563312,0.542052715346175,0.544435838327333,0.585120902434007,0.494196871026529,0.558581514025057,0.44152522834336,0.535423516962427,0.526070953624634,0.540374322302734,0.520757060856837,0.464404713182035,0.571759529808866,0.550653642874576,0.545441366687619
90,cane,12m,OC,0.616280033990456,0.52648387753896,0.468740480605834,0.505824601024264,0.447905945099009,0.544446055045182,0.540898683592747,0.588663702534133,0.496399780468034,0.555472107735772,0.443223444610144,0.536893527769226,0.529692837606242,0.537174872483997,0.519659501805395,0.470095958579384,0.571287292896011,0.549030528448752,0.546853579499081
100,cane,12m,OC,0.614306316869831,0.52396739518389,0.472197497069527,0.505697648243652,0.444965430929635,0.546879026810324,0.53713668669865,0.592480634030451,0.498334856613869,0.552676218859272,0.445965379257388,0.538074426033715,0.533480147855871,0.533307989718822,0.518820301097694,0.476579027561216,0.571013647312854,0.547515503859397,0.548004006090282
110,cane,12m,OC,0.612179183516338,0.52162645014345,0.476532995566081,0.506054306852232,0.441718151719393,0.54926610400553,0.532710738989455,0.596309004240697,0.500076310229443,0.55056412236626,0.448902434447214,0.539387660164478,0.53734331661921,0.529071356155889,0.518357717050297,0.483597549781135,0.569892426473092,0.545659406736967,0.549019769663675
120,cane,12m,OC,0.610185133934504,0.519359877189185,0.48189959690762,0.506771287497448,0.438806725993458,0.551881361476852,0.528110663485489,0.599869073567533,0.501993865566484,0.549249947233711,0.451488632227361,0.540652183303941,0.540735366238463,0.524696495742901,0.518158531274283,0.49062188213453,0.567883678364752,0.543740035953894,0.549752216627476
130,cane,12m,OC,0.608150093741207,0.517066884531304,0.487608898030282,0.507560432711241,0.435989180383182,0.554017565536137,0.523512870246523,0.603094837564267,0.50397906314515,0.548471509170376,0.453492503649242,0.541853913185583,0.543726759686005,0.520109841397146,0.518457600854507,0.497061963326825,0.565189631199025,0.541771182499343,0.550030077988262
140,cane,12m,OC,0.605740132720529,0.514860765665402,0.493215517191004,0.50813631308428,0.433073197853717,0.555976901454105,0.518994890950275,0.60593107361673,0.505937150564073,0.548202078775939,0.455176228703835,0.542876479178868,0.546201256549058,0.515380979022152,0.518911395730868,0.502729640817726,0.561815291034757,0.53956401076143,0.549898456821876
150,cane,12m,OC,0.60301133353527,0.512730826578998,0.498046073417451,0.50866180421557,0.429976735668856,0.55778737472517,0.514670564678261,0.608351357103708,0.507847797342489,0.548404013779009,0.456457335599923,0.543699332363191,0.548452085851695,0.510734122478836,0.519439796540739,0.507640398511785,0.558286484142737,0.536834842730314,0.549410967960331
160,cane,12m,OC,0.600290266650632,0.510474545347118,0.502294571507994,0.509630615508039,0.427211224982,0.559597428063977,0.51081783826862,0.610381559723113,0.509801060817481,0.548858727784594,0.457355942254285,0.54429434722564,0.550584155546645,0.506600844851488,0.519910923654369,0.51169404363843,0.555133468576632,0.533643741636066,0.548750176577851
170,cane,12m,OC,0.597743718964139,0.508047522323318,0.506491698140711,0.511055166541674,0.425131365784717,0.561916997494076,0.507866027244591,0.611963155491682,0.511706971988471,0.549668086218435,0.458149399020924,0.545026142875298,0.552371147666802,0.503183837816358,0.51988365376684,0.514875736497616,0.552651172018131,0.529955191302057,0.548224586899307
180,cane,12m,OC,0.59522515773629,0.505136233423347,0.510542843393891,0.512437376947157,0.424233213742695,0.564291126938094,0.505796365480716,0.613023362052543,0.512975592366879,0.550694077176718,0.458653557360006,0.545857688776822,0.553595196077667,0.500364132885755,0.519880428140573,0.517674951263571,0.551016735589784,0.525951029828542,0.547649398456667
190,cane,12m,OC,0.592647377005503,0.501863899041702,0.514406348700626,0.51380539460366,0.424104324970863,0.566583594480564,0.504745169433348,0.613642355887042,0.513840831427409,0.55162506728021,0.458862803957712,0.54685463530887,0.55431084535963,0.498071985971614,0.519682318005966,0.52015681315276,0.550363588464477,0.521436345303378,0.547375906835528
200,cane,12m,OC,0.589894337316653,0.498389392796461,0.518258907646083,0.515004899209474,0.424438082047237,0.568880816682897,0.505092202609557,0.613483352533118,0.51428831155657,0.552449901641704,0.458731124736181,0.54806517869322,0.554178852929563,0.49630185379745,0.51906917720314,0.5221197779416,0.550682265111481,0.516387731996668,0.547659852797018
210,cane,12m,OC,0.586697835455131,0.495051009467683,0.522225990401591,0.515982330970694,0.425638314372232,0.571151619950312,0.506309686871574,0.612387406590945,0.514543635297396,0.553439962394681,0.458616264235765,0.549240210843928,0.553290431956776,0.495359760310618,0.517860801749883,0.523347063660255,0.552178202969113,0.511151491989266,0.548399123021384
220,cane,12m,OC,0.583456537856382,0.492761055129287,0.526221887195521,0.516547474442242,0.427560008901455,0.573401518402628,0.507734027588292,0.610548636484651,0.514849206386021,0.553978170337003,0.459159168043421,0.550408280720649,0.55155245490306,0.495633024858249,0.516461264204382,0.523885386474292,0.554567036024357,0.505857470127581,0.549387916768186
230,cane,12m,OC,0.580515146907883,0.491291649597064,0.529829453371896,0.516697813805647,0.42972713092294,0.575650344934506,0.509538968933981,0.608249134904938,0.515286308769126,0.554107059054116,0.460843933681816,0.551456077981374,0.549070073726779,0.497037059891106,0.515059020779911,0.523567316039905,0.556980259865715,0.500540106676304,0.550319704835956
240,cane,12m,OC,0.577876464091085,0.49021450138693,0.532804359172719,0.516593058683805,0.431700060427277,0.577665784287102,0.51115842468952,0.605623725564721,0.51600146397186,0.553913913711314,0.464529478364062,0.552308385182952,0.546143873793106,0.49884281008739,0.513904643497746,0.522875757572848,0.558691429715654,0.495189566532347,0.551027575651571
250,cane,12m,OC,0.575269192260587,0.489054154905877,0.535374352291536,0.516318390186303,0.433739632511368,0.57960240866464,0.512465812410745,0.60297571167823,0.517334598240372,0.553509971785773,0.469784745741003,0.553026394911106,0.542842192780157,0.500673310955128,0.51321423883682,0.522410012452342,0.560455747060665,0.489949314956344,0.551530441856387
260,cane,12m,OC,0.572508823093664,0.487865006085417,0.538237764572872,0.515559856023578,0.435840641072359,0.581938337903852,0.513478388045334,0.600394627193066,0.519212426067108,0.552936531285372,0.475787642232938,0.553519561803857,0.53950515351429,0.502092599699505,0.512841726293504,0.522323386783794,0.562554064627904,0.484738880848829,0.551191290813093
270,cane,12m,OC,0.56961404338013,0.486633260713862,0.541452768915792,0.514122481229469,0.438130591544813,0.583930818317534,0.514170253804538,0.597619406329981,0.521082365529521,0.551685138231311,0.482010201721923,0.553533564745692,0.536410764032395,0.503365986345722,0.512441791075953,0.521872530205987,0.564036359623682,0.479844480549286,0.550417039774128
280,cane,12m,OC,0.566725603070676,0.485392372094859,0.545037388371382,0.511987140072252,0.440698615173229,0.585536135836155,0.514756700885775,0.594653663085577,0.522550009163122,0.549853324273256,0.488184112806437,0.553106155630897,0.533813558926581,0.504520484535719,0.511975263141614,0.520489624035168,0.564577987508659,0.475061230923287,0.549236802467622
290,cane,12m,OC,0.563844674345235,0.483882777485999,0.548951336437786,0.50900202325141,0.44371576076217,0.586741586158772,0.514911661877959,0.591276987963856,0.523450380461702,0.547444990385334,0.49390542604908,0.552518033688956,0.531817290074595,0.505904337218133,0.511157164134423,0.518063907124944,0.564460328851442,0.470656478611139,0.547724930195608
300,cane,12m,OC,0.560726314972127,0.482051570433428,0.553113518929166,0.506225042467045,0.446710443026327,0.587476429418852,0.514895678269775,0.587509167896717,0.523780638612484,0.544567792900283,0.498360588170755,0.551710430947673,0.530720291201041,0.507024466107601,0.510299165422111,0.515034948068284,0.564308293537518,0.466766374404557,0.545805568804441
310,cane,12m,OC,0.557349267128145,0.47980300277794,0.557474134504133,0.503314009214862,0.449833746905651,0.587309806925356,0.51463408970978,0.583666288279811,0.524070995611857,0.541372423349325,0.500456334610327,0.550769758196158,0.530367819313654,0.50751532839706,0.509940820547402,0.51200541183551,0.564575442107246,0.463589150719885,0.543675531937087
320,cane,12m,OC,0.553909313865594,0.477628025430573,0.562131203088696,0.500370502809905,0.452791989668715,0.586801787872741,0.513896068802235,0.579687499689327,0.524541148793366,0.538165265379503,0.501248605381598,0.549696163330958,0.530676091771457,0.507087609754543,0.509998898546293,0.509411671481655,0.564344021543504,0.461151513675447,0.54153185252803
330,cane,12m,OC,0.550439806944383,0.475445450274006,0.56722085359921,0.497675324563303,0.455516230691626,0.585845155252151,0.512747856424817,0.575609355090706,0.525634046353657,0.53543000763154,0.501387349883759,0.548515148623714,0.531639445524388,0.506347243439118,0.510049373811815,0.507181477378883,0.563242702434459,0.459248235814561,0.538916046700914
340,cane,12m,OC,0.546979307610375,0.473385736048017,0.571047284721017,0.495291680211471,0.457797114396255,0.584532915629301,0.511085391525587,0.571494357181918,0.527511071119404,0.533655617594756,0.500799468158954,0.547252274849108,0.533507604372852,0.505230910719918,0.51011630905902,0.505172676046382,0.561727172779344,0.457522259000974,0.536080833816586
350,cane,12m,OC,0.543496554869542,0.471488391647187,0.574502678310694,0.492920395022253,0.459610395254258,0.582827130595088,0.50865066238652,0.567231831459605,0.529703259668491,0.532732320461395,0.499625788378207,0.545888596655242,0.536606366746857,0.503681663635604,0.509998687109127,0.503519151828562,0.560909739911391,0.455554753049734,0.532990494746126
360,cane,12m,OC,0.539961895999005,0.46975254598917,0.57833790165744,0.49003908199782,0.460736141018957,0.580353979767128,0.50579434909857,0.56295377174776,0.532027289270537,0.532474322571062,0.49794453365487,0.54462474274035,0.540300035455838,0.501634014778515,0.509531257102884,0.502059532518053,0.559736203082031,0.453425461623417,0.529639074396341
370,cane,12m,OC,0.536444009881369,0.468100630524645,0.58244563131569,0.486904324326785,0.460974259644449,0.577223568143938,0.503622455051988,0.558706265685598,0.53325237238636,0.532880166733091,0.495967618444186,0.543261297101693,0.544398850870736,0.498724966147844,0.508313762291921,0.500837688825279,0.558729859650418,0.451174258146299,0.526036912860699
380,cane,12m,OC,0.532899077915972,0.466511678932949,0.586472991497826,0.483633201433389,0.46052090528912,0.573837800375555,0.501648187585369,0.554667734901303,0.533872414987043,0.534239643158367,0.494407625984225,0.541504663054328,0.549146429314217,0.49511298021415,0.506546381099432,0.500269049785011,0.557961085753679,0.448863724304897,0.522393412405848
390,cane,12m,OC,0.529486154920625,0.465098593009307,0.590354196151366,0.480337772158966,0.459728533574002,0.570303449634372,0.499085243839885,0.551043336187133,0.535020703028544,0.536262922039878,0.493674913412445,0.539508984686064,0.554452578367205,0.490960687194613,0.503971288040037,0.500184284912915,0.557126764149545,0.44622016445801,0.518947361860407
400,cane,12m,OC,0.526360663453052,0.464112983450476,0.593828229636134,0.477136882109976,0.458668781626001,0.566486900609891,0.496685380337821,0.547792742700262,0.536310512071756,0.538895868261765,0.493463733925343,0.537152516320289,0.560180627811585,0.486506187268133,0.50077551954521,0.500262788887103,0.555954631137671,0.44326936991547,0.516143830649543
410,cane,12m,OC,0.52344249090047,0.463759935403602,0.597049651292665,0.474192903566666,0.457489284470707,0.561552016159821,0.494243680404149,0.544856624876651,0.537818901660798,0.54166546322111,0.493922650223508,0.534572656872697,0.566101505242458,0.481906713522272,0.497186312798093,0.499931801935212,0.55441478902471,0.440396525900355,0.513672985197651
420,cane,12m,OC,0.520757628090306,0.464075132871649,0.599788672964165,0.47142738571513,0.455876367695569,0.555542712814363,0.491350122724375,0.541969813827908,0.539925337195002,0.544383851036861,0.494970444659927,0.53210079343974,0.571211896651269,0.477496012556964,0.493657527263071,0.499728435003716,0.553144123919983,0.437720689481386,0.511089841854033
430,cane,12m,OC,0.518427086300312,0.465185632145395,0.602102570665912,0.468822655524828,0.454082006649265,0.548583663108685,0.488017201929467,0.539610955618281,0.542220404843987,0.547387075832692,0.496438640202219,0.529707982105993,0.575831344505126,0.473398321563346,0.490388364402028,0.499488652234813,0.551949959347364,0.435545017705879,0.508677677350561
440,cane,12m,OC,0.516514844472324,0.466895762952733,0.603974085280599,0.466830807976231,0.452214858030291,0.541430847064961,0.484100707723617,0.537539393033935,0.544397631581808,0.550254926652923,0.498090899088594,0.527136614940438,0.580079965784056,0.469681191584541,0.487216471090325,0.498881144414749,0.551193053669922,0.43431971920049,0.50668173947444
450,cane,12m,OC,0.515383965812151,0.469511639324744,0.605338765176156,0.465693478248115,0.450429599413276,0.53435856294326,0.479363912958935,0.535510873306216,0.546416472210642,0.552640338371073,0.499815297752105,0.524355395758939,0.583657073783884,0.466423228561974,0.483865215908508,0.497991729621622,0.550595809563792,0.433714549962012,0.504941315261186
460,cane,12m,OC,0.515066643585633,0.472440162385956,0.606307415846014,0.465383534065982,0.448560029707545,0.52760739529112,0.474145537800685,0.533760725767883,0.548242940735017,0.55446936684638,0.501730722330684,0.521682183822417,0.585962679436295,0.463590442053512,0.480398404892949,0.496886814550491,0.549737760393718,0.433628114949811,0.503679810389713
470,cane,12m,OC,0.51521985536348,0.475371895171942,0.607059923369608,0.464998796450652,0.446702312690711,0.521502212346256,0.468660316778759,0.532275279479483,0.549828608976115,0.555570268422359,0.503814434324552,0.519378421289955,0.587346246746173,0.46118372624023,0.477279670164022,0.495471664008248,0.548804531599037,0.434221304703195,0.502152159259761
480,cane,12m,OC,0.515708328613799,0.478141566061385,0.60773617098533,0.464697840297637,0.445149277573768,0.516371642493488,0.462753106207644,0.531053002126824,0.551208877764817,0.555804753136062,0.50603731939731,0.517374493090486,0.588244580780186,0.459327275144434,0.474231384512906,0.494117502576093,0.547556333085544,0.435739290214715,0.50038417898081
490,cane,12m,OC,0.51612743828644,0.480656069459373,0.607913433250516,0.464385412692848,0.444145069296493,0.512003660698165,0.457122672069366,0.53027986883309,0.552438390628445,0.555467785261977,0.508922100070298,0.515739422438341,0.588837252359214,0.457857771655283,0.47130143453463,0.492740471156099,0.545871203698807,0.438099420552096,0.498424871594181
500,cane,12m,OC,0.516562237592122,0.482442038018311,0.608401654511041,0.46415194194406,0.443702353253505,0.508493858389171,0.451870719217957,0.529954894484388,0.553515115136197,0.5544631645202,0.512426282574869,0.514621278060776,0.58932988974431,0.456428453423929,0.468929005088411,0.49099304422737,0.543888018642855,0.440711075188721,0.496223121753501
510,cane,12m,OC,0.517318614544861,0.48344958120575,0.60901088577191,0.464299365769432,0.443458712845177,0.505600974672597,0.446949509961602,0.529904702479436,0.554233960251731,0.553196210089777,0.516382307205242,0.51392948576273,0.590171440414784,0.455483008041028,0.467437200731286,0.488758338004583,0.541794747668667,0.443364770108743,0.493331385808579
520,cane,12m,OC,0.518400881834759,0.484185076800053,0.609613898798808,0.464153738915469,0.443478800321752,0.503280250239942,0.442381854554435,0.530206455937886,0.554671949194274,0.551694817776768,0.520237070577111,0.513660923881924,0.591622858977508,0.454917459396887,0.467328038748431,0.486230340249412,0.539662823679123,0.446110095329571,0.490174849238228
530,cane,12m,OC,0.519578330566449,0.484564056271045,0.610202912508728,0.463820919895981,0.444337848648116,0.501419998891315,0.438103438851797,0.531222887179235,0.554944203117225,0.5498085896244,0.524499315953374,0.513836022063411,0.593327348289151,0.454737586695782,0.467922514544047,0.484290896870292,0.537298358111274,0.449011308187351,0.487305579386315
540,cane,12m,OC,0.520806254448827,0.48492770505248,0.610892569974931,0.463177237010386,0.445976355701656,0.500262942141858,0.433807467143679,0.532808186916591,0.554776246546593,0.547898740838096,0.529257455460176,0.514521119815924,0.595584781514647,0.45517920639865,0.468840307037326,0.482707095143906,0.53437087451195,0.452075116792743,0.484349359252628
550,cane,12m,OC,0.522029845937032,0.485688999405729,0.61166339114403,0.462136498556216,0.448500320488274,0.500003257428914,0.429810932892725,0.534677911816362,0.554130580550455,0.546191048274125,0.534288034964526,0.515519109579729,0.598306307945592,0.456376666111589,0.469890943282203,0.481365580076443,0.530603037004527,0.455064066275571,0.481694944206513
560,cane,12m,OC,0.523216783564627,0.487390365211032,0.611776961868241,0.46116653406644,0.451978066223094,0.500550712814445,0.426084206488167,0.536827276955936,0.553124122754204,0.544568489269973,0.539276226870697,0.516163802007779,0.600916999054424,0.458206064905802,0.471205934759568,0.479547412636123,0.526706460125133,0.457961028794947,0.479455778451163
570,cane,12m,OC,0.524387254655251,0.489251796795195,0.611207229748426,0.460110466800223,0.455568217950131,0.501831169723273,0.422549058995527,0.539286587715751,0.551781681275608,0.543296743775097,0.544734445482863,0.516483841029133,0.60309264926832,0.460811942714782,0.472364693226584,0.477985789595204,0.522995376732701,0.460428388898784,0.47818115185782
580,cane,12m,OC,0.52547936065556,0.491254777482074,0.61013828391471,0.45876188231571,0.459363698771895,0.503518689204727,0.419266834660919,0.54176342039512,0.55017927486298,0.542390473883687,0.550668118275096,0.516730031488687,0.604702958197638,0.464024322690768,0.473290250164762,0.476630454669414,0.519405570255649,0.46223858828357,0.478107865649388
590,cane,12m,OC,0.526696547430902,0.493848449140784,0.608517791106946,0.457925688065008,0.4634289619862,0.505282741505363,0.418238343865066,0.544315335005115,0.548439506698898,0.541729903391729,0.556710964853043,0.516716348059006,0.605647736230439,0.467292452666014,0.473955731450072,0.475913523451102,0.516047781057066,0.463812244223951,0.478769363126117
600,cane,12m,OC,0.528199890453839,0.49696102854607,0.60672372891571,0.457397166481424,0.467850258406657,0.506870822763559,0.418110945805243,0.54671603446505,0.546551203934079,0.541498339744076,0.562963112798643,0.516710165300504,0.605971719890821,0.47038443440824,0.474249672175427,0.475674482197599,0.512199168523673,0.465637888291809,0.480223337709893
610,cane,12m,OC,0.52982326983229,0.500245934587983,0.605014297868788,0.457191929298061,0.471882186864221,0.508677020538068,0.418661591272123,0.548567193696467,0.543855087470007,0.541626307894084,0.569121224356092,0.516690142188308,0.605487077270427,0.473122328332412,0.47411161383475,0.475464659755316,0.507811969531217,0.467574106659114,0.482531783404207
620,cane,12m,OC,0.531491945499235,0.5035709079832,0.603496787273377,0.457448201519734,0.475145303757828,0.511116027508791,0.419531396488018,0.549983796450076,0.540007412888355,0.542280372102708,0.57508432509767,0.516438261926981,0.604947315404744,0.475203238125691,0.473528478298712,0.475177811941437,0.503097294199718,0.469031864879968,0.485624723415457
630,cane,12m,OC,0.533034032561086,0.506438922453959,0.60149862566598,0.457943071311371,0.477708954522969,0.5139492948345,0.421026029790573,0.551019150245577,0.534433426503549,0.542729946613197,0.580829567495844,0.515989203206544,0.604010374550447,0.47657075295532,0.47270085745053,0.474954146101893,0.4986376175388,0.470147833931742,0.489505459445657
640,cane,12m,OC,0.534557183852301,0.509069101905499,0.598534378276693,0.45816636594473,0.479817472727652,0.515624739459404,0.423580648297713,0.551262084883209,0.527954933429255,0.542641320674736,0.586311665760624,0.515378528873072,0.602717938776933,0.477725482640607,0.471833487428488,0.474546374080556,0.494558865480701,0.47102750517964,0.493865798392486
650,cane,12m,OC,0.536294367748394,0.512159939946338,0.594760552744908,0.458377926287741,0.481317142345104,0.516946576262659,0.426458694180809,0.55092980189872,0.521560072637999,0.542406484794713,0.591469139829879,0.514540620826758,0.601020718371963,0.478863039945592,0.471230487410858,0.473743195963458,0.490709798118728,0.471785337462514,0.498588239464975
660,cane,12m,OC,0.53836357418226,0.51549997745357,0.589760557901192,0.458780231625972,0.481876035073183,0.518174918174721,0.429650321711794,0.550281919792623,0.514234232313939,0.542123372333576,0.596486049682783,0.513713431968287,0.599154578653398,0.479807115084052,0.470686369170401,0.473282958392961,0.486958473696364,0.472394594228843,0.503421647083092
670,cane,12m,OC,0.540532392073154,0.519065662709307,0.583928749457702,0.459372731276925,0.482058605777695,0.519205497147067,0.433070599339702,0.549285437783843,0.505377196185551,0.542245519603235,0.601275439704528,0.512925256916625,0.597333621158734,0.480859688578727,0.470519694907501,0.473236332265118,0.482932570206106,0.473021072354617,0.508393937586564
680,cane,12m,OC,0.542442461116746,0.522264824279888,0.577689780351284,0.460061118879992,0.481896416252002,0.520099340331318,0.436409247291256,0.547884289731656,0.495525457689321,0.542639453476763,0.605500129416624,0.512311466375389,0.595272699940433,0.48192123053756,0.470895740468407,0.472970477994106,0.479069090317565,0.473559566151406,0.513755228117775
690,cane,12m,OC,0.544401942594083,0.525023596071661,0.571011560763425,0.460472253465993,0.481284128047328,0.520942085242935,0.439462560885186,0.545972788876179,0.485389088725866,0.543476781077487,0.609231528974127,0.511550034700871,0.592524802939775,0.482975362575733,0.471595334988516,0.472149427454114,0.475356921944209,0.473755510468307,0.518896750325093
700,cane,12m,OC,0.546471149567226,0.527203997295892,0.564034563407741,0.46128947736325,0.480645753971103,0.521544239570601,0.44226965943722,0.543699450997174,0.475851985981649,0.54483131432582,0.612699976792487,0.510848521492446,0.589250676258349,0.484395946573993,0.472403827326314,0.470455570319192,0.471702973443248,0.473465985701808,0.523470029815269
710,cane,12m,OC,0.548493751815447,0.528788620667823,0.556418099076453,0.462574024526821,0.480042454573703,0.521867513852772,0.444953549042737,0.541197833960353,0.46626864119455,0.546300374501052,0.615966032550815,0.51046521467305,0.585588342791489,0.486093762002607,0.473085708397881,0.468532756251261,0.46811461580746,0.472665309843035,0.52761179226235
720,cane,12m,OC,0.550562516766906,0.529924621630633,0.547945061902538,0.46348523311217,0.479655279289331,0.521862848064691,0.447489172424,0.538485286353452,0.457469510235529,0.548400453605521,0.619024735975777,0.510179505229146,0.581105402790015,0.487786938237158,0.473837816986198,0.466273781115443,0.464176436303133,0.471660468454148,0.53138093090674
730,cane,12m,OC,0.55306574262184,0.531302904349418,0.539278523113274,0.464329500820192,0.479584877673068,0.520817306910838,0.450709010755934,0.535639230539469,0.449391145310009,0.550516387977789,0.62176389447596,0.509854832294738,0.575965113271616,0.489388968157594,0.47478143523252,0.464360962136271,0.460448260688563,0.470317886579292,0.534900928588963
740,cane,12m,OC,0.555971132414451,0.53217637424242,0.530544966781764,0.464963530994017,0.479556833091496,0.519095433017702,0.454059415012717,0.532535968070169,0.441859300577484,0.552369466510445,0.623831734873473,0.509705608297605,0.570315446334752,0.490702974629776,0.475942099212366,0.463000437451081,0.457197347150046,0.468630534399607,0.537533779870039
750,cane,12m,OC,0.5587793644261,0.532565084417059,0.522433267895043,0.465514019217445,0.479481140068264,0.516797346051393,0.457251156206987,0.529472848873182,0.435073053454544,0.553678346898048,0.625272441677095,0.509809776644267,0.564045056527462,0.491562953243377,0.477341904752446,0.462064659857953,0.454298939856387,0.467084495453974,0.54026236161686
760,cane,12m,OC,0.561370612210919,0.532250328939623,0.514869430105035,0.466230757338347,0.479268955545817,0.513919324751213,0.459836583689854,0.526095132022504,0.429223393605901,0.554341712170609,0.626291388790788,0.509758985682467,0.557516108367543,0.492096119307192,0.478935612091687,0.461303757267069,0.452121217671663,0.465169377712611,0.543515440651612
770,cane,12m,OC,0.563604317743088,0.531244143863692,0.507527918448379,0.467258449110651,0.478724719345036,0.510487284661701,0.462239946675702,0.522743651514427,0.424495558402476,0.554408533471602,0.626785365417373,0.509437910044696,0.550905996839697,0.4923885545912,0.481205160730434,0.460417991074889,0.45137594516443,0.462866591485133,0.546648456247541
780,cane,12m,OC,0.565197323135477,0.529494088757079,0.500494105762272,0.468138006217005,0.478511706902829,0.50679656620019,0.464971827971188,0.519609895198703,0.421072966874649,0.553906767161204,0.626554585508319,0.508854565438781,0.544543450189722,0.492710691320485,0.483785603928646,0.459789589006744,0.451604059414657,0.459991812551716,0.549034719496692
790,cane,12m,OC,0.566117181080629,0.526757183678283,0.495184093607654,0.468926736235254,0.478446777380349,0.503028617893786,0.468976256787339,0.516705855997568,0.418886011774028,0.55284960001583,0.625362130368808,0.507982775924857,0.538848895422948,0.492542634599678,0.486661089164943,0.459415914806742,0.452305464119064,0.456497320374982,0.550722206939447
800,cane,12m,OC,0.566804294920168,0.522992332204608,0.490804147024892,0.470068412542279,0.478837401990409,0.499586117739707,0.474729492408707,0.514510139452652,0.417542941780713,0.551565970996503,0.623195743045004,0.506840620618906,0.533964986885799,0.491589349932176,0.48979496183163,0.459764347389482,0.453552774073095,0.45267064807265,0.551719500902044
810,cane,12m,OC,0.567389054291687,0.517961471940142,0.486320623297258,0.471865153035855,0.480257174988893,0.496729550103278,0.481258126604246,0.513166149933846,0.416741388513438,0.549904768388365,0.620092822296253,0.505535539885462,0.52989371614979,0.4898678359657,0.493287660677485,0.462046204758975,0.455686445933364,0.448676554591669,0.551827019537645
820,cane,12m,OC,0.568093578227187,0.511960129518741,0.481728593911711,0.473641917303347,0.481882456974773,0.494170251651717,0.488290794378613,0.512577517993555,0.416824242882346,0.547991098572139,0.615722024354699,0.504015949598658,0.526269127344257,0.487939839144465,0.497071826582609,0.465309343086586,0.45819821692777,0.445125392705995,0.550289941729995
830,cane,12m,OC,0.568884046609904,0.505448537014178,0.477486432703809,0.47501249192842,0.48360890508333,0.49152431812426,0.49527736554762,0.512135242796419,0.417930007103193,0.545911561419416,0.610371606130571,0.502397639761021,0.522920809823437,0.485878853860271,0.500876743695092,0.468446329014358,0.460025600234385,0.442294336029065,0.547838814613154
840,cane,12m,OC,0.569931036420725,0.498653356858542,0.473285707858308,0.476434002098285,0.48517385580405,0.489613767555342,0.502008545274271,0.511721947247358,0.41997524092612,0.54356299026014,0.604418346688244,0.501085828051199,0.520255455337884,0.483663841677432,0.504494551391979,0.471088515219285,0.461820538726585,0.440029326690714,0.544608620299989
850,cane,12m,OC,0.571385456444245,0.491946483452146,0.469006104616179,0.477845646498841,0.486194243604762,0.487713102776431,0.508162410958135,0.511054817920337,0.422770149262022,0.541262885383178,0.598093010462815,0.499879687169791,0.517964536581061,0.481177786283494,0.508446053062678,0.47327881588229,0.464022009552839,0.438800324615571,0.54073136468672
860,cane,12m,OC,0.573246784646832,0.48548051807437,0.465652300032767,0.479056252834431,0.486707919157129,0.48544614858881,0.513173917809085,0.510105110168681,0.426142900628052,0.539296221618493,0.591041133802503,0.498774109820329,0.516191661445958,0.478685785498512,0.512630500172726,0.474557237322989,0.466743436286304,0.438550812037728,0.536868273217482
870,cane,12m,OC,0.575002923853617,0.479364093908537,0.463640080105148,0.480465203092819,0.486731694970997,0.483465118530219,0.517324910748046,0.509597999000352,0.430044855401493,0.537686581685828,0.583105436156355,0.497681993210365,0.514588596864943,0.476291884966838,0.516375905950292,0.475025734259839,0.470195782906095,0.438760671310968,0.533069877117273
880,cane,12m,OC,0.576538566739393,0.473465508476505,0.462655098628954,0.482238363511542,0.486787497339659,0.482588888372098,0.521342184168553,0.509815301620826,0.43441117999775,0.536395785885922,0.574922297993645,0.49677912886709,0.512763393496423,0.473720434822805,0.519771952813266,0.474922913315357,0.474041083068153,0.43923789802164,0.529211353122107
890,cane,12m,OC,0.577503056691199,0.467866766559082,0.462408903517655,0.484190863881566,0.48623119285124,0.483477651547525,0.52549198176238,0.510391166760801,0.439005135352536,0.535775255067334,0.566908271543084,0.495982710537123,0.510894451449185,0.470852289164642,0.523348883095801,0.474612647089617,0.478286577321039,0.440083913196735,0.525744667447373
900,cane,12m,OC,0.578733645378234,0.461993972498027,0.462980814923883,0.485891832997635,0.485170175790463,0.484690024186106,0.529559119181977,0.511005372002196,0.443592546073338,0.535534215271541,0.55909697184275,0.495689434511553,0.509377865733365,0.468187132409169,0.526836825706487,0.474544537716728,0.482781238334462,0.441224814058339,0.522756592713171
910,cane,12m,OC,0.579685523891162,0.455745919864388,0.463874133355647,0.487572190304421,0.483942398265572,0.485796590241427,0.532719251470861,0.511883517666545,0.448018332011701,0.536288351256289,0.551863280604991,0.49592701807269,0.507895478103125,0.465636758865555,0.53005307142615,0.474500304248133,0.487582443469555,0.44240753665858,0.520381998077039
920,cane,12m,OC,0.580114393265907,0.450037705509225,0.465087113001946,0.489404593373355,0.482906373636459,0.486554290802015,0.534371651142831,0.512892102920296,0.45213710717242,0.537701299815499,0.545043792365744,0.496717792933884,0.506267236041658,0.463350944359194,0.533016794625594,0.474548878271935,0.492726973203308,0.443918709359684,0.517988657888361
930,cane,12m,OC,0.580461646994549,0.445155133279595,0.466330643123238,0.491826469163403,0.48209844819408,0.486913553092126,0.534801930461481,0.513820893272157,0.455537083792159,0.539029160084416,0.538867846645718,0.497819665358344,0.504573015671073,0.461144574253705,0.535878919437345,0.475000190654728,0.49785329046292,0.44589544679167,0.515985771982891
940,cane,12m,OC,0.58089199265249,0.440950878706295,0.467929963648433,0.494393604589446,0.481115895472261,0.487175020131634,0.534068683602124,0.514817449280983,0.456827040681628,0.540090398248997,0.533141185655446,0.49914137104548,0.502969885409945,0.459279714740487,0.538528890433944,0.47584822582594,0.502534288803965,0.44792828956894,0.514061115270632
950,cane,12m,OC,0.581319247462273,0.437487041045659,0.469983754410818,0.496689745982715,0.479957771969516,0.487526694302785,0.531667469257223,0.516170170677562,0.455797795628057,0.541123228176798,0.528017941652872,0.50098862740075,0.501440258780024,0.457959149435477,0.540882284665417,0.477606716580905,0.506798083361903,0.450128341990656,0.512251485155909
960,cane,12m,OC,0.581899606274428,0.435074061340776,0.472275635257577,0.499068156683314,0.478896628341839,0.488215189118615,0.528154893643798,0.517596878351646,0.453100345190389,0.542129768188786,0.523655774546315,0.503584664802018,0.500232165559453,0.457576637212922,0.542716326246776,0.479759517124071,0.51025194573381,0.452345878594595,0.510576210295851
970,cane,12m,OC,0.582460407868753,0.433432025190609,0.474582385466343,0.501507255413627,0.477541431830526,0.489474269554414,0.524165736749128,0.518798685632014,0.448297747299842,0.54307418163312,0.5201086004927,0.506306721211188,0.499401826303821,0.457247681468633,0.544327328364241,0.482072618211453,0.512715304187616,0.454203616984296,0.508934258731831
980,cane,12m,OC,0.582956419929632,0.43226386730764,0.475518523651535,0.503807800310433,0.475917414577163,0.491538689657549,0.519896970878832,0.51944016482739,0.441601358030122,0.544338529381459,0.516843983770653,0.509185817538343,0.498784408637232,0.457212763735994,0.546028820688307,0.484231493120414,0.514276582545191,0.455120395964951,0.507148834011268
990,cane,12m,OC,0.583703079903782,0.431422478104397,0.475465292839875,0.505908571116679,0.474380761233191,0.494555457626997,0.515472837823874,0.519665721962591,0.434874507724795,0.545512859708443,0.514192947262493,0.512168227506157,0.498530498091824,0.457682238786808,0.547879330083932,0.486713430043743,0.515757425642985,0.455803555597894,0.504954193410258
-1000,grasp,12m,OC,0.570805030585416,0.536764349170871,0.650409908408343,0.58505846015477,0.445811065741985,0.530257769522776,0.567089759159728,0.420337550643479,0.52500353872213,0.527791784787752,0.452539059505103,0.454098766082954,0.481381526771611,0.470688907335991,0.591244046264702,0.602470959564582,0.581283452105261,0.473654129369033,0.550782835466297
-990,grasp,12m,OC,0.573009312172639,0.535008417214555,0.654649359906079,0.58674490681042,0.445936996892711,0.529889406316197,0.565169366247245,0.422706775722978,0.528353879740094,0.524798322585971,0.458803281190265,0.453552508148556,0.484185477205545,0.470527078128598,0.589344796911032,0.594776684229685,0.58657716267436,0.475502966944082,0.550527141528951
-980,grasp,12m,OC,0.575211556524767,0.533214619200209,0.658500525255564,0.587782220822278,0.44604671237511,0.528990432826594,0.561859385209478,0.425610909816034,0.53136846120256,0.521944295536682,0.465351166381358,0.453143906462028,0.487195043654762,0.470643007629333,0.586777787674429,0.58724361875191,0.591384795446505,0.477404013406843,0.550611317265855
-970,grasp,12m,OC,0.577695172504861,0.531252279045248,0.661908936455124,0.588722283992594,0.446428272723776,0.528163371133957,0.55801476208851,0.428823132179096,0.534077430022477,0.519548125742871,0.472286705715386,0.452604791778117,0.490157920454273,0.471046893657311,0.583706133789651,0.580232801092771,0.595221364395645,0.479341633927818,0.55102580650324
-960,grasp,12m,OC,0.580572939596909,0.529253528051836,0.664660362802498,0.589773649215071,0.44728061167073,0.527198761170867,0.554083617824194,0.431942806203813,0.536749330588912,0.517964264417665,0.479488090326253,0.452266679796075,0.493140525758704,0.471819240889306,0.580287093907491,0.574164425251597,0.598319229645802,0.481329853352816,0.551601779869013
-950,grasp,12m,OC,0.58409616951374,0.527074628210018,0.667017170134902,0.590721896201748,0.448156409673028,0.526108245163036,0.550324079918224,0.435067554474745,0.539414737777577,0.517008329669749,0.486458475822585,0.452238317361475,0.496284633313839,0.473016022601558,0.576679309676978,0.56912255537372,0.60075055832154,0.483183754258933,0.552154186979252
-940,grasp,12m,OC,0.58815676301064,0.524774037881377,0.669153901716705,0.591538054847736,0.449455575226219,0.524976136184022,0.546993915851028,0.437367472035847,0.542251361977736,0.516622565633535,0.493135871750182,0.452655928847065,0.499366437065859,0.474318401599,0.573020437374515,0.564848959757509,0.602345346115918,0.484882737622364,0.55259023511607
-930,grasp,12m,OC,0.592326245823907,0.522430944192523,0.671003514024116,0.59257216628925,0.451282397106094,0.523752052438809,0.543652898718765,0.438760992535845,0.545117172946989,0.516689034859041,0.499107998214209,0.45360919269734,0.502204259859857,0.475628648917369,0.569377728683607,0.561390357051092,0.603044197874338,0.486470932798958,0.552522711500663
-920,grasp,12m,OC,0.596678676263373,0.519837700679095,0.672697377594259,0.594009661029142,0.453251680950997,0.522290402202675,0.540328308524629,0.439675501812908,0.548222013447498,0.517203756179695,0.504259552898313,0.454964330268621,0.504531155482904,0.476861495727556,0.565797086484439,0.558987282705295,0.603015154452269,0.487903977731061,0.55202449879723
-910,grasp,12m,OC,0.601465391953889,0.517700895372654,0.674169392200251,0.59591375077846,0.455160489119753,0.520467015684244,0.537095600228185,0.440279447515267,0.55099407711408,0.518568459879716,0.509141559921634,0.456760074874718,0.506308218404711,0.47813458548836,0.562463927282798,0.55734960643476,0.602547366225133,0.488953962167403,0.551434552953425
-900,grasp,12m,OC,0.606437502820865,0.515609622663244,0.674848530922097,0.598173059537245,0.457350238344289,0.518156183658124,0.534036434351256,0.440693099344993,0.553537650322187,0.520035515847766,0.513574925056399,0.458950338599659,0.507881944566688,0.479254284041859,0.559349383427739,0.555334435985517,0.601914342177513,0.48934888942847,0.550873066886007
-890,grasp,12m,OC,0.611515852046531,0.513309197658367,0.674957554684932,0.600611762584816,0.459309269584704,0.515766116115349,0.531119385103399,0.440858713930402,0.555846498529305,0.521075017418921,0.517408429692645,0.46160681017147,0.509219733116037,0.47999291317642,0.556556589454799,0.553180429926975,0.601166380501821,0.489799960641175,0.55036716666213
-880,grasp,12m,OC,0.616464492641228,0.510771562800543,0.674538508968961,0.602690359306919,0.460815445172142,0.513477694458393,0.528685003753116,0.440897556613293,0.558076250499136,0.521847069792702,0.520521938932629,0.464530570039018,0.510551140261968,0.480560278417334,0.554245986520792,0.550960505198582,0.600291373390835,0.489969929522325,0.549742118315524
-870,grasp,12m,OC,0.620909098286049,0.508412566380289,0.673757779570207,0.60393373879031,0.462508642585485,0.510434993607558,0.526539288880888,0.440741004733237,0.55974601376085,0.522255744995891,0.5227089834283,0.467291511767932,0.511900210414977,0.481364801068659,0.552223313364495,0.548595999428634,0.59915038005188,0.489861500822077,0.549080032864563
-860,grasp,12m,OC,0.624969330264346,0.506069231761541,0.672864456359341,0.605102474503141,0.464655525192778,0.506990937984867,0.524137073239162,0.44015988126269,0.560835992949868,0.521760403126964,0.523795540470677,0.470018660581665,0.513291625713134,0.482274452513433,0.550792930290604,0.545984354802944,0.598223333340883,0.489359999731921,0.548766353225316
-850,grasp,12m,OC,0.628741182910046,0.504100188661212,0.671456169537766,0.606390737623374,0.466919868998034,0.503139596796055,0.521528940393821,0.439319151962228,0.561259582791637,0.52053972472189,0.523848700149272,0.4726382954653,0.513738182868857,0.482921515472376,0.550027798050412,0.543005708139029,0.597364100286405,0.48895959134913,0.549201064674323
-840,grasp,12m,OC,0.632429319583048,0.502273638884812,0.669786913610365,0.608039712706961,0.468904696680055,0.499008856705797,0.519188881381185,0.437871749253334,0.561267414553408,0.518706713785538,0.52255860402338,0.475019918637708,0.51251327819609,0.483469582986613,0.549730888161364,0.539640638248614,0.596499880295552,0.488499692156089,0.550077452809087
-830,grasp,12m,OC,0.636056473631002,0.500484057339903,0.667649645302974,0.610113333129279,0.470397821409573,0.494547164968203,0.516783186654079,0.435452884797382,0.561022574438158,0.516709098107693,0.521287903766777,0.477286496151198,0.510269485023862,0.483365892967957,0.549603736689209,0.535381950034733,0.596104370800854,0.488039344840701,0.55074850366561
-820,grasp,12m,OC,0.639354399011896,0.498906987060721,0.665412065888608,0.612342595056165,0.471545751421216,0.490053271071119,0.514201216333209,0.432460805356232,0.560383232014969,0.514593324874197,0.520179168218944,0.479247378484461,0.507418902774264,0.482495495176205,0.549437507090507,0.530548065382441,0.596215850817816,0.487165494491247,0.551452498551254
-810,grasp,12m,OC,0.64211133856584,0.497426665587299,0.663057832147183,0.614626235881868,0.472308341763363,0.485670043555546,0.511421697589478,0.429211666196177,0.559479979362251,0.512660663125907,0.519019999391256,0.481028195553156,0.504469023037013,0.481328489726809,0.54918637820181,0.525490784452411,0.596811827430638,0.485936140461912,0.552188273260552
-800,grasp,12m,OC,0.64436025841681,0.496009791909585,0.660128928827624,0.617234882142307,0.472702321322195,0.481461425031995,0.508446346429094,0.425433003133463,0.557968405227836,0.511119368005635,0.517700623318558,0.482555875292612,0.501435782587934,0.480102780051021,0.548880310018729,0.520435360009464,0.597893238018433,0.484768659208255,0.553163063068292
-790,grasp,12m,OC,0.645994130279193,0.494460145308359,0.656436149821112,0.62005315895698,0.473085598313123,0.477582315719884,0.505540219294071,0.421370706654003,0.555778863393981,0.510034061266217,0.516039525681132,0.483842012545145,0.49828904981369,0.478715289445593,0.548694445851953,0.515524350702467,0.599101643364212,0.483492576048733,0.554520131103013
-780,grasp,12m,OC,0.647060037852936,0.492612537442972,0.651878904497008,0.622460274585227,0.473511276703625,0.474153270003583,0.502888131691678,0.417112608342985,0.553176216886315,0.509404830356179,0.514190166138877,0.485045183984173,0.49532870174495,0.477384672151525,0.548511443604188,0.510659930576289,0.600169018172666,0.482051249672098,0.555822845362237
-770,grasp,12m,OC,0.647510150449962,0.490517574881755,0.646559322596379,0.624532848099137,0.47400929705992,0.470735852207039,0.500506038159792,0.412072810305371,0.55007384586454,0.509413245697594,0.51274727619344,0.486415855553884,0.492851136190481,0.476127486268393,0.548501281806397,0.505902734772556,0.601201718760653,0.48091079642449,0.556994036890326
-760,grasp,12m,OC,0.647479263497954,0.488553390023869,0.640614772807466,0.625902816526909,0.474693954176191,0.467360915567173,0.498378012627727,0.407162022592594,0.54654915356636,0.510303524909807,0.512305998376343,0.488175050985303,0.49080432909576,0.474641467186801,0.548880990055515,0.501768112905141,0.602159481150823,0.479880425771619,0.558621060949014
-750,grasp,12m,OC,0.647021447041899,0.486893353098989,0.633831807107759,0.626751545708846,0.475352340188027,0.464342788788169,0.496523210242664,0.403172255638046,0.543135519413472,0.512181114941742,0.512769026017322,0.490816706330401,0.489035756315649,0.472850889981502,0.549686711607904,0.498310710576541,0.602430332347357,0.478509365600035,0.560674014562043
-740,grasp,12m,OC,0.646019466002435,0.48526663984823,0.62620645649196,0.627371512958997,0.475549394008301,0.461783756299355,0.49504919128945,0.40020159426662,0.539733855909378,0.515041732846244,0.513974294796996,0.494085068180516,0.487321521161487,0.471528208563537,0.551116686545608,0.495531937675597,0.602393288911348,0.476597956468913,0.56275494184354
-730,grasp,12m,OC,0.644485208788308,0.483380550953134,0.618166147263217,0.627876239756496,0.475573890544753,0.459868742292185,0.494165808823736,0.398261716341969,0.536049788476889,0.518647189496856,0.515794218009718,0.497830215746461,0.485465124547398,0.471109730979257,0.552694460606756,0.493339906470392,0.602187628154701,0.474406389292579,0.564650402554155
-720,grasp,12m,OC,0.642542658160619,0.481192062225225,0.61032605404254,0.628275392289737,0.475493208757283,0.458535903126452,0.494120481879642,0.397485265593736,0.532479392621401,0.52332629917765,0.518007398396322,0.501935556155985,0.48295891591817,0.471177886158104,0.5544765974288,0.491767981665469,0.601856219362776,0.472254815177722,0.566527898762288
-710,grasp,12m,OC,0.64026395442071,0.478676338673693,0.603036563987596,0.628473189981251,0.475232373777961,0.45758413967346,0.495077879503323,0.398138888624178,0.529271923619853,0.528641214190755,0.520182687843893,0.506005507280547,0.479357777964281,0.471769122697452,0.55640771368416,0.490908879564422,0.601022094826706,0.470249225982256,0.568242041082541
-700,grasp,12m,OC,0.637582427925035,0.475733529751604,0.596625514937191,0.627930082887573,0.474808208434191,0.456784882908606,0.497127839629947,0.400228298606342,0.526525934116096,0.534620341845457,0.522835988168752,0.509884509438232,0.475425891788016,0.472892122387691,0.558563977370526,0.489189960063292,0.599636955255977,0.468176083475079,0.569829251459009
-690,grasp,12m,OC,0.63458153588559,0.472056839024501,0.591031633992114,0.626378369749029,0.474177993433913,0.4559831761471,0.500201662151777,0.403769378433164,0.524371741767003,0.541203474842093,0.526257680430374,0.51365112827216,0.471413628133917,0.474350065390195,0.560785701432983,0.486992458443805,0.598178266766845,0.465957319270108,0.57169452131748
-680,grasp,12m,OC,0.631395229819131,0.468326885013972,0.586156159012497,0.624279964816326,0.473459489445619,0.455319720640597,0.503991893571586,0.408385533831238,0.522637829152323,0.548385245266684,0.529997441945716,0.517192091820495,0.468070087462594,0.475999800711857,0.563125004156703,0.484985075112223,0.596846846449802,0.46381030799726,0.573742552279936
-670,grasp,12m,OC,0.628083610569728,0.465098887339644,0.581959041326664,0.621856907259022,0.472932678225316,0.454963538943867,0.508220274566642,0.413841526740317,0.521142085130844,0.55601835463272,0.534160287832235,0.520115954986464,0.465217276701436,0.477808901118709,0.565941989025878,0.482801143640476,0.595462379209441,0.46153803254445,0.575881793846284
-660,grasp,12m,OC,0.62452659316841,0.462690633963947,0.57819974494421,0.619089322217436,0.47253999257037,0.454574574103794,0.512506566474093,0.419953871277518,0.519776132766796,0.564345665538073,0.538824696248554,0.522215910293845,0.463138068843524,0.479748218521578,0.568937744725034,0.480837319866137,0.594093195051262,0.459294553738264,0.578106108563878
-650,grasp,12m,OC,0.620801293525601,0.460984826111887,0.575217638859847,0.616069753157711,0.472520216455049,0.454195136147863,0.516181310457349,0.425987042758273,0.518530852797216,0.572907272517042,0.544032747476625,0.523816886834129,0.461285402195714,0.48193364629087,0.571924333462218,0.479109163854124,0.59267419985199,0.456909768416542,0.580668258559734
-640,grasp,12m,OC,0.616971397902827,0.459606832119264,0.573157492117654,0.612882905282915,0.473064193596754,0.453890054893211,0.518976140409733,0.431755873627978,0.51750312777782,0.580669300916834,0.549864511167427,0.52492409502024,0.459515993754886,0.484202305583204,0.574794238268295,0.477476087579361,0.591142780608384,0.454380054858842,0.58383980422296
-630,grasp,12m,OC,0.612779700397571,0.458602382674797,0.572333356093946,0.609441171719165,0.474439445183932,0.453490441027403,0.521017129116876,0.437405016212621,0.516773380843244,0.587807494639196,0.556031404471655,0.525504108141399,0.4578894237685,0.486454239452225,0.57729717776066,0.476067093635077,0.589609580130423,0.451925587237106,0.58725387201298
-620,grasp,12m,OC,0.608488122746939,0.457948319893611,0.572617348495487,0.605632215406725,0.4762747111488,0.452978289986583,0.521635004860348,0.442966331876928,0.516416055968403,0.594349737914927,0.562285044071505,0.525958094510637,0.456480049726585,0.488499038427144,0.579667463125349,0.475180532376453,0.587367192285362,0.44958000264915,0.590452875095103
-610,grasp,12m,OC,0.604344452240143,0.457376175850427,0.57382803225168,0.601454422144104,0.478351546701372,0.452086013735422,0.521941957836874,0.448221465995863,0.516495963602585,0.599915286374707,0.568579976050253,0.526315199199229,0.454845687693573,0.49042590978511,0.581938409133132,0.475089649309803,0.584885745678987,0.447291907068765,0.59301946668543
-600,grasp,12m,OC,0.600613593492012,0.456760570877888,0.575795929531362,0.596805382191976,0.48061050142912,0.450414332530927,0.52208302375463,0.453270353141423,0.517086288187818,0.605273095186025,0.574857282047016,0.526196568166969,0.453070087091602,0.492345966612969,0.583889252480657,0.476300524231651,0.581896917253917,0.444759064461803,0.59535563940135
-590,grasp,12m,OC,0.597254699915134,0.456508122234483,0.578268474901509,0.591838495072405,0.482690831418462,0.448387128781975,0.522431475402889,0.458101309160686,0.518398295573502,0.610241646899876,0.581075576498794,0.525567512423634,0.450868208677278,0.494268086563584,0.585175180887537,0.478602937234097,0.578063992022048,0.441829265428168,0.597371492003902
-580,grasp,12m,OC,0.594008878259135,0.456346543535111,0.580719223457359,0.58682678404632,0.484202615859997,0.44619692827438,0.522544833376344,0.462555360604785,0.520315184385694,0.614249128185982,0.586749564653567,0.524565953078002,0.448710855872151,0.496262804512775,0.585907567730043,0.481366164215689,0.573661137017569,0.438784860211174,0.59887768487527
-570,grasp,12m,OC,0.590726373859975,0.456305466589519,0.583778943034018,0.581837627904771,0.485260155864851,0.443917702443881,0.521622570951666,0.466793894961963,0.522234778493788,0.617376362232027,0.592423321014849,0.523531629676949,0.447026942538846,0.498330009029524,0.585954310447812,0.485017057335373,0.568482713432838,0.435829003239137,0.599689933238949
-560,grasp,12m,OC,0.58719004568513,0.456170817344656,0.587840502169169,0.577277955956977,0.485714819187216,0.442010943140633,0.520068222801538,0.471190570246942,0.523708208168233,0.619309249708428,0.598243137279507,0.522384050585793,0.445612823622055,0.500143628675799,0.585106610084303,0.490201021286231,0.562771498948142,0.432778785278427,0.599906707138492
-550,grasp,12m,OC,0.583476216649537,0.45577104817692,0.592501152764969,0.573038459739039,0.485501140499229,0.440757556061985,0.518340290283336,0.475598399699731,0.524870156878287,0.620126976929231,0.604160055110168,0.520939210886793,0.445075347760521,0.501549794672576,0.58336326558464,0.495916989985411,0.557359326802113,0.42983733789418,0.5996807662906
-540,grasp,12m,OC,0.579837394024083,0.454948332903473,0.597533219992921,0.569197579892216,0.484985651796719,0.440828788532924,0.516925746921808,0.480226083095224,0.52529685126209,0.620166165205806,0.610274899233691,0.519323339505406,0.445835465503847,0.502620861162192,0.580544330338994,0.502401331707043,0.552257366428884,0.427690706714362,0.598781888016677
-530,grasp,12m,OC,0.576559026097093,0.453592320204184,0.602890371562338,0.565562557147073,0.484474313561272,0.442467813939017,0.515556674796514,0.485159204578099,0.524667889758611,0.619636929786088,0.61656397696058,0.517756359761195,0.447378876714593,0.503185153842993,0.576949073321287,0.509923100864658,0.547750188740742,0.426986897443846,0.596619182246995
-520,grasp,12m,OC,0.573647710214285,0.451808099987314,0.608407482457999,0.561863442828284,0.483844595430379,0.445204841114437,0.513802604750669,0.490903464677806,0.524005461953992,0.618600735757649,0.62285503060684,0.516395426759556,0.449677125381317,0.50336164675601,0.572527595216895,0.518180821665874,0.543872462351747,0.427358253375128,0.59372465932895
-510,grasp,12m,OC,0.570875751302399,0.449771384238279,0.613991776475708,0.557925845791519,0.4829389139505,0.448902570011383,0.511573760704219,0.497001166685342,0.522879226872856,0.617199978279593,0.628712605934727,0.515367914132975,0.452400933323406,0.503153527282315,0.567772575446904,0.526416277549631,0.540342976465015,0.428436198903119,0.59026429222875
-500,grasp,12m,OC,0.568334059998889,0.447614640232468,0.619688963699784,0.553876627896313,0.481609377138937,0.454156715644457,0.509463787052161,0.503248552154869,0.521568410841774,0.615546583506008,0.634000636298874,0.514328209582433,0.455628838257038,0.502958778969577,0.562899142481958,0.534220181796708,0.537316404644691,0.430073443074741,0.586296889415785
-490,grasp,12m,OC,0.565880447774531,0.44533414293246,0.625547508324709,0.549939771442096,0.480011647132583,0.460979222984422,0.508178419700113,0.509413588261593,0.520361147233978,0.613827828758819,0.638990024247868,0.513362006391748,0.458969595930514,0.50314121608102,0.557862885781375,0.54115631498088,0.534755711476278,0.432082159935623,0.582208332711404
-480,grasp,12m,OC,0.563502332185261,0.442784378746791,0.631339721698862,0.54604954995364,0.478270437066518,0.467082512378243,0.506414935874702,0.515526452676573,0.519579161272883,0.612004248247785,0.643253585276238,0.512474245597882,0.462107690130184,0.503391652466302,0.552807438699432,0.547111101737939,0.532665277189451,0.434495423265383,0.578060793793449
-470,grasp,12m,OC,0.5612432029843,0.440076088524104,0.636973789606516,0.542378133338553,0.476012731156098,0.472147232295012,0.504644764518682,0.521876717393723,0.519403617905404,0.609960078493056,0.646958029267637,0.511541031673892,0.465202881029288,0.503499856185483,0.547725958770931,0.551863206281137,0.531078150421035,0.437093256530782,0.573587174059721
-460,grasp,12m,OC,0.559073349658236,0.437498258322388,0.642797257210082,0.539354619959433,0.473490536408018,0.476180179136256,0.502689832360314,0.527949141844602,0.519739224255739,0.60773649995292,0.650039255618334,0.510888129837527,0.468401295280268,0.503430097000185,0.542827859007072,0.55625802467277,0.529716288522811,0.439619527282802,0.569064388102423
-450,grasp,12m,OC,0.55692118008648,0.435314088884756,0.648740309489456,0.53760637801116,0.471167036843318,0.479601958359318,0.49949395810951,0.534067171419494,0.520467889871313,0.605187354111217,0.652266921133628,0.510418398331912,0.472240520382492,0.503133149819234,0.538401491966165,0.559546455107207,0.528501365683398,0.441575024631015,0.564954791202391
-440,grasp,12m,OC,0.554902556314865,0.433646593844006,0.654350985487834,0.536821762319346,0.468916858782431,0.482871443966645,0.495575827816189,0.540262217237934,0.521545056204386,0.602065348467482,0.653646524972464,0.510098503836874,0.477079789151008,0.502617236658086,0.534449435218642,0.561569847282364,0.52722262475449,0.443084318806979,0.561014610802473
-430,grasp,12m,OC,0.552952773320935,0.432424035273856,0.65872030024468,0.536681684448684,0.466521559398833,0.486477888024911,0.49140748636895,0.546515077948563,0.522977610900897,0.598055995941006,0.654185403585331,0.509982104749416,0.48193759039003,0.502357557825526,0.531071296348404,0.562826640219039,0.525457709402849,0.444331923274211,0.557200296541557
-420,grasp,12m,OC,0.55116730918543,0.431664355310912,0.662278936579284,0.536540906445232,0.46381938619472,0.489903280174112,0.487940054362278,0.55266572229932,0.524833757240931,0.593697536583714,0.653763144759973,0.509951292797965,0.486466776296409,0.502103756782318,0.528579917727084,0.56321883345105,0.52418707889585,0.445420746701334,0.553259883878267
-410,grasp,12m,OC,0.549689673094128,0.431590883168503,0.665316891579246,0.536883623706265,0.461162522908803,0.49339348670966,0.485856968609424,0.558501871518323,0.527090859158721,0.589259757745601,0.653152970351056,0.510025833256537,0.49057281962088,0.501754452635309,0.527096215893935,0.562800248084395,0.523023536360921,0.446393996915259,0.549378837461013
-400,grasp,12m,OC,0.548661333325708,0.43255907303639,0.667637948676709,0.537664994386601,0.458581489802141,0.497241879421077,0.484737032469829,0.564216189911393,0.53054736887388,0.584827976884136,0.652595093783,0.510462786970105,0.494428556033771,0.501252652029542,0.526834149744834,0.562010323601676,0.521880636888488,0.447151160760543,0.545608754535152
-390,grasp,12m,OC,0.548140451913166,0.434029676100483,0.669207029929149,0.538782405139739,0.456072726966113,0.50149590305333,0.485118131809706,0.569857460651122,0.534174145031945,0.580670337221986,0.652340981450273,0.511077984692833,0.498316956996622,0.500481884575053,0.527751602706542,0.560772228687693,0.520951542806321,0.447417970925643,0.541983197899965
-380,grasp,12m,OC,0.548161351393817,0.43575601913773,0.670140383714649,0.540295504854277,0.45378582960376,0.505996095884678,0.485781002412282,0.575451242696626,0.537641055450284,0.57687997224098,0.652611293651816,0.511440926176596,0.502198059534621,0.499597282983747,0.529381732073895,0.559109616414337,0.520507991260653,0.447065935553457,0.53838285962621
-370,grasp,12m,OC,0.548380055274675,0.43791114375841,0.670719543067002,0.542419199359239,0.451707488629387,0.510745565011992,0.486866042691045,0.580765612962187,0.541047134318328,0.573355960982691,0.653323137035533,0.51157922209661,0.506252123055883,0.498581012484377,0.531756203080503,0.557202871758022,0.520659387078429,0.446092166192288,0.534759108815936
-360,grasp,12m,OC,0.548701859668841,0.440403208223888,0.671339857310502,0.54412755729312,0.449932164156639,0.515717546883873,0.48822946981686,0.585460220564532,0.544707185387384,0.570124372382809,0.654473893420361,0.511537265948714,0.510356296922506,0.497441168977357,0.534921088546613,0.554937475081089,0.521027426203095,0.444650662115577,0.531158161308038
-350,grasp,12m,OC,0.549254311838416,0.44271770145503,0.672392229977615,0.545118161635127,0.448491035176875,0.521029394867674,0.48970543098175,0.589162920447183,0.548135431110311,0.56764570351679,0.655678371154857,0.511450393744712,0.514461680908405,0.496385326583278,0.53837992506513,0.552201984500347,0.521845482074235,0.442938631055913,0.527955634103365
-340,grasp,12m,OC,0.550192324979011,0.444918400028037,0.673389107300054,0.545542046327846,0.44757618272048,0.526395586137288,0.491951522550369,0.592128822171566,0.550451093495758,0.565229981188312,0.656779063598966,0.511396128013642,0.518120366599193,0.495553408693875,0.541965730844505,0.548927585433167,0.522524394449211,0.441156781032704,0.525199840993312
-330,grasp,12m,OC,0.551341884367964,0.447048112963964,0.673983869327581,0.544961834687711,0.44738455425273,0.53189680340592,0.494944473167774,0.594593166302277,0.55226625963438,0.56286813620358,0.658229058145948,0.511470577114948,0.521168270479653,0.495073627851911,0.545446519563458,0.544827039045739,0.523071158835188,0.43950158686022,0.52262973198636
-320,grasp,12m,OC,0.552411992464207,0.448832477862703,0.674340159302021,0.544697367867739,0.447680965176182,0.537653145607884,0.498573867571027,0.596765657764713,0.553656635342407,0.560497680919287,0.65997386080031,0.511518163236195,0.523842537408642,0.494999652770386,0.548791258881427,0.539407153867475,0.523401711600748,0.438017369970389,0.520288683164231
-310,grasp,12m,OC,0.553346599698156,0.450216668631831,0.674448442907495,0.544691532250079,0.448044368048559,0.543767366591945,0.502851887334232,0.59847164947141,0.554724718622443,0.55779852510806,0.661827001626386,0.511543737742262,0.525746931425987,0.495152718588963,0.551990967574321,0.533189225056066,0.523806971982346,0.436553386873455,0.517694404230785
-300,grasp,12m,OC,0.554093477349872,0.451162625749876,0.674341691290184,0.544421117568862,0.448505237551881,0.549505557333479,0.507784466290929,0.599242957450147,0.555450063502512,0.554796372754985,0.66366103721349,0.511495092667032,0.527612817337409,0.495407597939632,0.554996936586875,0.525609991425125,0.524513734884862,0.435209286077155,0.514774650747783
-290,grasp,12m,OC,0.554730729889721,0.451776070770829,0.674079126850584,0.54374645363105,0.44929035463743,0.554699917595796,0.51257124882634,0.599758761168996,0.555835223973307,0.55190519257432,0.665274988651949,0.511536930891449,0.529530735672084,0.495851799596048,0.557561152672156,0.517768654184961,0.524968933515425,0.433915277747733,0.511956511521494
-280,grasp,12m,OC,0.555152829730048,0.452116896446875,0.67366229897101,0.542560391340881,0.450612495209692,0.559377550458056,0.517076556275523,0.600165562917035,0.55627009144507,0.549262838849303,0.666515021074901,0.511715465741913,0.531537815744815,0.49648972842495,0.559705456892043,0.509743579468426,0.525181054385417,0.433349843844117,0.509342513885268
-270,grasp,12m,OC,0.555225412613481,0.451909892485676,0.673063104091792,0.540809258345195,0.452317869324345,0.563392550896663,0.521625723841671,0.60014289215563,0.557129388247481,0.546948929925244,0.667353729162783,0.511900848827613,0.533367141548714,0.497326105384025,0.561254679022456,0.501739886898846,0.525518663259091,0.433213409995149,0.506774303032626
-260,grasp,12m,OC,0.554879815703451,0.451758087717041,0.672289080945606,0.538832887278469,0.454208084769909,0.566251579964527,0.526120565366357,0.599800111994847,0.558358044767656,0.54516366888984,0.667524244292704,0.511901042248125,0.535011590762675,0.498235985893364,0.562089440004771,0.494171139354604,0.526284549562261,0.433328780662237,0.504076703571416
-250,grasp,12m,OC,0.554138922129035,0.451732921213434,0.671531258324771,0.536941366026838,0.456522008061854,0.568372222776059,0.530401355191971,0.599290162460194,0.559760013328157,0.543935987521263,0.666719075878168,0.511573155363353,0.536022893213294,0.499169085965259,0.562454605748207,0.487275277500176,0.527024798234879,0.433553984173083,0.501781993701627
-240,grasp,12m,OC,0.553112021375443,0.451607279338366,0.670354623412263,0.535360228746317,0.459274083112329,0.569557392872552,0.534602184411798,0.598723001393411,0.560981064923775,0.544118180285043,0.664909121967103,0.510848494221415,0.536554014376417,0.500213349456839,0.562537288770857,0.481158314094378,0.528050145647851,0.433820217709725,0.499839822594777
-230,grasp,12m,OC,0.551970462480184,0.451751526336985,0.66839407672989,0.533873704383241,0.462421825254878,0.569668267603128,0.538465932343319,0.598435392553828,0.561793107581561,0.545049647387363,0.662759988353566,0.509663950502168,0.536919113767775,0.501118697326558,0.562353777898767,0.475728195719366,0.528856394223943,0.434162244044722,0.498265823144429
-220,grasp,12m,OC,0.550731929893088,0.452139895150061,0.665258609405912,0.532180382074327,0.465918456211226,0.569009848330211,0.541182195981717,0.598445317692388,0.56265352161906,0.54646001177453,0.66093090273948,0.508403729633833,0.537050575763195,0.501739105728611,0.561773513648359,0.470604389907575,0.529320906400065,0.434668291429003,0.496719857447875
-210,grasp,12m,OC,0.549180570621753,0.452847535533196,0.66078634137347,0.52962763166973,0.469442062507556,0.567668872740197,0.5429476857755,0.598487612375907,0.563704882579219,0.548053911807487,0.658946416710462,0.507330457690662,0.537949683702498,0.501716975503631,0.560829251053828,0.465333162419766,0.529777521901077,0.435361255765773,0.494957028300813
-200,grasp,12m,OC,0.547381728673436,0.453665089043147,0.654832078320844,0.527393412663209,0.47292921599202,0.565775939021993,0.543907118335222,0.598871707818386,0.564951882201705,0.54986192490744,0.656403537840066,0.506523990852057,0.540059306778389,0.50110271557072,0.559768079858764,0.45933472574533,0.529824255920944,0.436316703030967,0.493301057124931
-190,grasp,12m,OC,0.545359715169384,0.454571248188189,0.647151723563621,0.525618407931855,0.476154844258389,0.563560416808815,0.544191592510656,0.599634033142105,0.566111849088221,0.552008131718693,0.653248218443499,0.506007647660143,0.542538506694773,0.499879887116794,0.558673622468346,0.453217317398131,0.52956681611197,0.437784874502198,0.492188915122172
-180,grasp,12m,OC,0.543155567201477,0.45581201779067,0.63829849499946,0.524148434219893,0.479384795617283,0.561046553360263,0.543327908852888,0.601014557941164,0.567225789766828,0.554456247759329,0.649260476587737,0.505900607881922,0.544835532824813,0.498394900489845,0.557905114985985,0.447109531847758,0.528893135282564,0.439532493114352,0.491489071304175
-170,grasp,12m,OC,0.541162111458965,0.457143648953765,0.628599643965939,0.522924221464724,0.482087971602582,0.558292620895146,0.541365397579629,0.602883420720888,0.568015856766897,0.55721781493694,0.644081478029729,0.506803358024786,0.546754405398936,0.496772205337103,0.557469800054951,0.441107664787156,0.528109079240797,0.441356982388397,0.491203508091079
-160,grasp,12m,OC,0.539400203891475,0.458725953112985,0.618141203716634,0.522089740306022,0.484410297631499,0.555200048633302,0.538239899237528,0.604854600630575,0.568889960281169,0.560231317358067,0.637696894829723,0.508474772694136,0.548156803822457,0.494969848674278,0.557321971086283,0.435443442728534,0.527277700500159,0.443093810161566,0.491052475815542
-150,grasp,12m,OC,0.537754323785006,0.460352641306919,0.607099565940908,0.521433920759413,0.486349331573193,0.551750542607562,0.533665357131113,0.606704515176263,0.569794152128035,0.563343027371064,0.63037288100103,0.51060157407704,0.54899151189034,0.493287269855049,0.557551751807497,0.430504679494553,0.526030119445196,0.44451129234462,0.491295429968084
-140,grasp,12m,OC,0.536330184010917,0.462078973924304,0.595941174908037,0.521713482844293,0.48799228601229,0.54825672412276,0.528294218674145,0.608412318893248,0.570625600976083,0.566748441500536,0.62226747967319,0.513265654717566,0.549221731468495,0.491903206074485,0.557857363660939,0.426775707002417,0.524011598736568,0.446015214442719,0.49125754479086
-130,grasp,12m,OC,0.535241319305983,0.463691459631321,0.584993336794085,0.522799316172853,0.489861079941594,0.544653113976164,0.52249449588604,0.609700187823687,0.571162696023018,0.569888953093137,0.613338824237457,0.516603289589642,0.549110945354523,0.490685788341693,0.558149211970351,0.423658173616339,0.521146062655679,0.447688320667393,0.491591990453085
-120,grasp,12m,OC,0.534518608254745,0.465111830833538,0.574442876208411,0.524072780220642,0.491579584007313,0.540821690002888,0.516107150786543,0.610964022162176,0.571145350255241,0.57280142621722,0.60285690622157,0.520492321007361,0.54921324484639,0.489481580740212,0.558270431109955,0.42163019082585,0.51797398282959,0.44958799128224,0.491544188782179
-110,grasp,12m,OC,0.534040958467271,0.466612297697094,0.564391117014918,0.525390696978821,0.493108166607468,0.537229086536413,0.508968485602886,0.612364353001533,0.570486996278594,0.574945454324325,0.591446355729832,0.524544202127785,0.549473316443988,0.488180275817631,0.558760730048795,0.420691901406739,0.514699032412348,0.451130067658629,0.491426554143976
-100,grasp,12m,OC,0.533908235420676,0.467788953369578,0.555342971050173,0.526163562606596,0.494749630343585,0.534359300809828,0.501725360661945,0.613873811127977,0.569305366997762,0.576591548000688,0.579589792448681,0.528521918975278,0.550047682331328,0.487114880093616,0.559300261202222,0.420449655333081,0.511407049774576,0.452310129233921,0.491375845374058
-90,grasp,12m,OC,0.533770292209158,0.468777088536408,0.547914275279918,0.526133791391963,0.496059811414565,0.531570512718472,0.494605092958327,0.615813674807146,0.567470236800395,0.577528245832234,0.567505841743421,0.532418966413679,0.551210630287079,0.485742082773143,0.560140292341804,0.420499673217462,0.507606387350359,0.453376867242598,0.491267660046621
-80,grasp,12m,OC,0.533479869303928,0.469651370831272,0.541764971280296,0.525584771930267,0.497024848378461,0.528559040196569,0.487648839561729,0.618236409161956,0.564874137192783,0.578139710658951,0.554626072840295,0.535998596537271,0.552973311588945,0.483957053722726,0.560902228770972,0.421108990653682,0.503588859873448,0.454503734759882,0.491397837547057
-70,grasp,12m,OC,0.533192141186387,0.47107837721156,0.536686514489568,0.524814103836535,0.497538971501069,0.525753386366517,0.480337280879781,0.620941921407742,0.561883708186724,0.578559340475966,0.54175171506945,0.539228739232849,0.555486458304215,0.481729123646024,0.560958197675977,0.422242360076622,0.499612689456138,0.455454937415792,0.491119845482631
-60,grasp,12m,OC,0.53258035067838,0.472891909441544,0.532537556172483,0.523920483085462,0.497452429384486,0.522959609311793,0.472865113973934,0.62346765745896,0.558567390849038,0.578516455650013,0.52886634257209,0.542089646456043,0.558069673217879,0.479262194266298,0.560261799320004,0.423815092169589,0.496047403268697,0.456266110861161,0.49099500678879
-50,grasp,12m,OC,0.531924339091491,0.474701591871654,0.528918986610177,0.522745824946693,0.496556032017885,0.520344101065271,0.465129643391445,0.625803238665386,0.554757909420438,0.578201055856277,0.516234181023905,0.544400587924095,0.560241097838079,0.476804721199896,0.558948436256107,0.426675624818593,0.493240641324016,0.456833613545522,0.490878299213601
-40,grasp,12m,OC,0.531380558019503,0.476060846721811,0.525632819707943,0.521228395281312,0.495434514895651,0.518528500373663,0.456991546475344,0.628210238867424,0.55085245796401,0.577840460957871,0.503898967870746,0.546005240665644,0.562172800889316,0.474670527226512,0.556990061233804,0.430294087553898,0.49081401723707,0.457559827596188,0.490217042139815
-30,grasp,12m,OC,0.530762674332114,0.476992412401418,0.522557739461158,0.519268875038771,0.493613783644997,0.517452270429349,0.448665008023304,0.630655455786659,0.547102445515935,0.577732049512119,0.491788587650014,0.546782769916632,0.564153729725218,0.472948832133611,0.554679428979237,0.434760444664318,0.489176457645327,0.458225374288469,0.489193336658719
-20,grasp,12m,OC,0.529870067172387,0.47687740268819,0.519295422654987,0.516921527216249,0.491448399855633,0.51698863385116,0.440236668845383,0.632864099434872,0.543511778595503,0.578013669463681,0.479847924990647,0.547071833669611,0.56560081904045,0.471632098426415,0.551972577341843,0.439961404185489,0.488676257500995,0.458564906308057,0.48799472941211
-10,grasp,12m,OC,0.528577539195959,0.475801722529521,0.516060329134514,0.514127311700089,0.489345883165763,0.517549775412086,0.431642167971973,0.634882375594223,0.539958669849567,0.578673506686617,0.468068355327762,0.547163729278746,0.566420681453824,0.47102401917402,0.548627134278304,0.444887680868051,0.489435082255105,0.458482505944874,0.486995474922846
0,grasp,12m,OC,0.526919531657983,0.474502157211855,0.513103456355192,0.510787570290585,0.487387259675116,0.518741140855269,0.422327223760184,0.636615593111256,0.536205786495389,0.579665201620356,0.456467772257851,0.546791430897684,0.566944537192269,0.470881000339527,0.544984714948255,0.448904637588732,0.491370488899826,0.457956606423907,0.485726409175338
10,grasp,12m,OC,0.525070843531172,0.473117902715947,0.510439924548286,0.507162466341711,0.48518950930333,0.520122827315795,0.412928655224639,0.637800647871024,0.532226945549072,0.580924264772731,0.445013346046723,0.546099643430832,0.566810405581995,0.470881603293094,0.541052268657026,0.451783934837839,0.493680566555325,0.457142522107583,0.484666002417608
20,grasp,12m,OC,0.523275743711485,0.471701612928517,0.507837778928715,0.503425115087164,0.482903362937005,0.52178033797033,0.403517230204268,0.638748616148062,0.528219427369394,0.582695795544222,0.434053519076119,0.545224448883826,0.566379468453508,0.470881028712735,0.537024397324821,0.453976801103256,0.496366366643709,0.455824421658343,0.483921599406427
30,grasp,12m,OC,0.521585459033053,0.470481668595248,0.505384735395442,0.499913535953022,0.480669166479689,0.523244695498165,0.393997511228446,0.639617465038824,0.524214923892175,0.584801796966101,0.423623476830933,0.543829618853813,0.565413466760784,0.470905711576088,0.533157200409229,0.455462338115177,0.498936199838258,0.454185226435381,0.483550499805235
40,grasp,12m,OC,0.520008037812923,0.469385729475977,0.503292133589693,0.496798573766008,0.478384256970963,0.524034077271741,0.38449998254126,0.640812119742183,0.5206100272854,0.587000368702146,0.413531513020251,0.542006709816864,0.564032501922884,0.47096477482099,0.529504923076729,0.456379748504496,0.500865663858926,0.452238480273722,0.483502570918126
50,grasp,12m,OC,0.518656536188142,0.468340687692139,0.501504493247592,0.494122629652536,0.475890374625708,0.524435730306611,0.376228742490835,0.641865174999302,0.517528417089526,0.58912937170768,0.403691239772057,0.539870489019082,0.562306953533305,0.470769179289218,0.525737249274966,0.456914898274445,0.502147163414877,0.450463691002885,0.484484384712258
60,grasp,12m,OC,0.517433529928525,0.467642875250404,0.500273727993343,0.492688807879564,0.473045393782097,0.524257838999236,0.369288029831259,0.642431084476078,0.514693839486817,0.591095901551263,0.394398595536383,0.537352578564102,0.560249765169967,0.470134073902922,0.521746797418125,0.457337404744169,0.502444682827955,0.44893240383596,0.485937136095873
70,grasp,12m,OC,0.516375715657584,0.467397479906856,0.499589573993827,0.49194826814821,0.46978215529597,0.523565194406451,0.363526928549246,0.64249760784027,0.511917979329937,0.592795523154616,0.386217882226093,0.534546117408863,0.557861036371071,0.469772134059913,0.517639965622366,0.457594890948059,0.502036919246917,0.447275035664294,0.487514487202324
80,grasp,12m,OC,0.51562754485619,0.46754115072493,0.499413234467723,0.491800275905351,0.466363663492155,0.522278293127658,0.357530532138449,0.641980160601383,0.50906869591745,0.594209430005723,0.378529393379552,0.531257120356266,0.554986014636827,0.469527908019903,0.513453165511514,0.45731273851144,0.501315766526032,0.445721126964881,0.489047891362277
90,grasp,12m,OC,0.515223433908119,0.467954120198179,0.499820499572373,0.491889273101398,0.462957096612303,0.520652059701402,0.35273133265692,0.640760858944315,0.506093371203829,0.595304046067129,0.371278018806117,0.527855218004838,0.551573345364453,0.469603603132594,0.509332119536919,0.455882530647071,0.500429778425715,0.444277541470872,0.490837879251945
100,grasp,12m,OC,0.514900057938482,0.468798465892324,0.500832829478307,0.492338732174828,0.4599742314448,0.51902156910008,0.349005873520546,0.63866052660835,0.503412156394366,0.59593736833837,0.36469938706334,0.524408627322784,0.547532513167641,0.469739178714891,0.505605280523915,0.453127528417254,0.499846115610826,0.442950304546628,0.492895506195979
110,grasp,12m,OC,0.514576290416318,0.469821271772738,0.50221448105403,0.493409895088008,0.457131866818587,0.517488967042664,0.346269675536311,0.63613527926003,0.501013251056163,0.596262911527146,0.358879578592096,0.520931830758045,0.542880782395453,0.469785813087962,0.502036514319157,0.449312100670314,0.500220545940204,0.441490617877596,0.495185103838092
120,grasp,12m,OC,0.514290847185015,0.470786908691592,0.50385650713742,0.495274029048386,0.454416979637331,0.515760710037606,0.345023574752098,0.633448998434487,0.498805111948799,0.596421619969405,0.353833154267247,0.517448762204951,0.537778903461236,0.469627224495943,0.498492931783575,0.444970897596536,0.501393420669234,0.439333972221057,0.497603142543014
130,grasp,12m,OC,0.514330505205936,0.47171717079504,0.505714685697177,0.497838126374967,0.452033497449345,0.514009294030923,0.345899209608151,0.630701017054721,0.496962522497144,0.596531497857618,0.349303800441312,0.513821271579373,0.531849774177825,0.469283532130826,0.495696598504193,0.440171243665193,0.502789722880616,0.436706383009682,0.499913126721301
140,grasp,12m,OC,0.514341427058677,0.472526786128361,0.507581938159408,0.501190847875288,0.449910892094904,0.512469215612515,0.348766476717441,0.627922035247279,0.495765178901318,0.596886298796458,0.345418682710879,0.510013777701147,0.525954634137514,0.468774896689105,0.493582495952044,0.434754196307595,0.504292411532873,0.433777423693799,0.501870289222495
150,grasp,12m,OC,0.514593270986656,0.473476652019639,0.509494647990267,0.505045018352042,0.447982031370533,0.510953212488729,0.352868122592343,0.625178834977639,0.495748141574182,0.597129805451728,0.342230658744633,0.506324931810984,0.520518706136506,0.468346043476016,0.491587237036496,0.429204882664409,0.506018257691263,0.430707511499769,0.50314030341813
160,grasp,12m,OC,0.515271432940416,0.474539965043257,0.511371211098329,0.508931371643746,0.446780565740657,0.509696178130791,0.357067294713407,0.622343488425199,0.496309528304034,0.597017910536583,0.338983001699167,0.502509111612604,0.51567572795992,0.467764593216999,0.489791061952613,0.423864396987855,0.507757776328153,0.428092199678087,0.503470162159417
170,grasp,12m,OC,0.516290983805492,0.475357625321558,0.513039302989947,0.512504401948291,0.446854843495797,0.508780422100591,0.360968134650151,0.619624910082661,0.497402883169345,0.596152014866734,0.335398233806621,0.498613917546373,0.511316183143887,0.466949460111461,0.488336615924715,0.418680223216865,0.509680465511857,0.425756012512368,0.503317011027231
180,grasp,12m,OC,0.517616310336375,0.475863071480635,0.515175831362379,0.516020328140961,0.447595299160068,0.508083981427384,0.365115163038476,0.616939813532529,0.499077719564778,0.594549416168647,0.33205890310187,0.494726528141154,0.507245721567382,0.466199636841756,0.487212976756286,0.414115857117672,0.51200361936188,0.423703489646617,0.502820028426011
190,grasp,12m,OC,0.519204453508703,0.476171486253903,0.517737472784628,0.519300761772725,0.448821941238274,0.508003953817726,0.369699827798895,0.614046913509583,0.501310650364689,0.592444236826675,0.328947255306243,0.491025169034522,0.503375106254555,0.465821404291216,0.486607284278202,0.410711474392956,0.514985199041561,0.422068745352448,0.501892827917778
200,grasp,12m,OC,0.520479009532342,0.476448816176099,0.520620626625436,0.522816161646888,0.450240790654685,0.508621862736677,0.374545885193141,0.611184971910247,0.504022915947851,0.589819574743252,0.326199099299498,0.487757373492066,0.499399009537855,0.465827079171494,0.48654711578052,0.408105109323561,0.518624210296195,0.420676490671048,0.50062024056524
210,grasp,12m,OC,0.521470575654998,0.476707486323506,0.523606278669739,0.526068363543766,0.451694730113463,0.509876129979833,0.379479432258805,0.608385666857783,0.507591655271142,0.58707001360795,0.324611367948334,0.48508635414574,0.495636432623294,0.465967602372983,0.486757709700849,0.405983842223367,0.522497017114509,0.41960585307924,0.499305088118019
220,grasp,12m,OC,0.522631749769412,0.476633179821158,0.526132701541021,0.528962891123702,0.453119896698771,0.511779163402888,0.384648336396745,0.605294535566709,0.511834527480843,0.584193823544555,0.324391411819558,0.482757122615589,0.492177351069879,0.466043285179906,0.487118082343327,0.404469428618631,0.526708366006142,0.418740298394249,0.497988157513998
230,grasp,12m,OC,0.523607140041275,0.476629383165005,0.527824443130385,0.531418466868592,0.454652564720814,0.514192569959486,0.389911837173977,0.601551685972981,0.516510806638448,0.581612715303603,0.325593455988409,0.480750013988302,0.488682640715669,0.465887053302483,0.487859754196635,0.402706099975966,0.531258644419121,0.418102850623727,0.496679321051011
240,grasp,12m,OC,0.52410282918454,0.47689619107406,0.528586578501099,0.533510883066664,0.456398619119531,0.516790202191913,0.395243825371466,0.597224443796735,0.521354433632061,0.579173911946658,0.327668512297306,0.479165699282979,0.485453441519191,0.465488417821344,0.48904012187653,0.401173715445974,0.536005509816964,0.417989521132464,0.495385922559164
250,grasp,12m,OC,0.524196873153214,0.477597202942996,0.528539443381266,0.535070590449088,0.458075380265283,0.519503748922664,0.400796084888955,0.593152954822859,0.526067560396198,0.576765707627147,0.330041828429492,0.477930164376606,0.482424963759123,0.464931401599997,0.490432183849339,0.40001062106631,0.540459226719395,0.417982622670701,0.494236896866489
260,grasp,12m,OC,0.524023511256229,0.478551862675874,0.527699421296753,0.53667627215113,0.459873779428883,0.522340875438252,0.407234328508156,0.589690748310315,0.530197099764091,0.574485772796068,0.33259442210192,0.476982605930875,0.479409955192487,0.464928366449509,0.491930806647935,0.398937205349632,0.544858714920007,0.417973065557124,0.4927960445826
270,grasp,12m,OC,0.523636022970059,0.479411084120777,0.525995080172564,0.538113312632443,0.462029142088092,0.52529615418293,0.414166407369994,0.586582002492323,0.533792021984944,0.572150247399084,0.335351435439098,0.476348192913236,0.476402917390293,0.465350233233957,0.4936828623337,0.398082652758105,0.549273007908275,0.418117952724238,0.490912803955859
280,grasp,12m,OC,0.523042301476373,0.480394824553675,0.523524413101887,0.539408242467566,0.464582737245619,0.528080857348219,0.420554918008105,0.583411176522415,0.537276559075002,0.570008738662049,0.338182873310362,0.475940211727147,0.473485634274873,0.465648832226384,0.495640552650275,0.397524532193626,0.553381877927239,0.418342525172722,0.488920466285696
290,grasp,12m,OC,0.522225037451004,0.481468567422659,0.520329439133571,0.540499763640833,0.46732970009173,0.530689049995907,0.426282373320555,0.579765958371067,0.540512278245295,0.567870544935949,0.340943984466794,0.475757915872032,0.470779762906596,0.466164844197767,0.49746014382376,0.398070959774088,0.557113174681384,0.418820426549091,0.486821104314672
300,grasp,12m,OC,0.521199218060702,0.482273935104273,0.516502447129786,0.541399709332389,0.470351731279935,0.533598877589425,0.43153080919934,0.576040102957048,0.543118869310856,0.565944282459642,0.343426537590225,0.475915061039072,0.468098447968281,0.467097004863275,0.499272961426168,0.397656209319661,0.560936198213402,0.41980094384948,0.484783284302438
310,grasp,12m,OC,0.520222381835922,0.482908160924241,0.51227307403231,0.542330414055459,0.473346473015564,0.536941702626382,0.436581605958787,0.572480902965106,0.545068745710422,0.563718221218706,0.345399776115101,0.476352029154891,0.46518732044627,0.468202119410598,0.500729346961872,0.396774609291366,0.564472574992149,0.42125119379296,0.483475927125122
320,grasp,12m,OC,0.519685529820568,0.483551964480642,0.508090419476393,0.543110125513406,0.476337286987154,0.54044603445999,0.441671941304381,0.569387946517702,0.546407738785698,0.56098477967609,0.346652760158811,0.477068850074524,0.462151068021378,0.469447803008593,0.501760268486733,0.395015858047032,0.567891449204752,0.422599288826873,0.482562305180367
