Time,Condition,Age,ChannelPair,connect_overtime_LA_EEG_12_P04_CTS_MTH_chanpair_12m.mat,connect_overtime_LA_EEG_12_P05_CTS_MTH_chanpair_12m.mat,connect_overtime_LA_EEG_12_P06_CTS_MTH_chanpair_12m.mat,connect_overtime_LA_EEG_12_P07_CTS_MTH_chanpair_12m.mat,connect_overtime_LA_EEG_12_P08_CTS_MTH_chanpair_12m.mat,connect_overtime_LA_EEG_12_P10_CTS_MTH_chanpair_12m.mat,connect_overtime_LA_EEG_12_P11_CTS_MTH_chanpair_12m.mat,connect_overtime_LA_EEG_12_P16_CTS_MTH_chanpair_12m.mat,connect_overtime_LA_EEG_12_P17_CTS_MTH_chanpair_12m.mat,connect_overtime_LA_EEG_12_P19_CTS_MTH_chanpair_12m.mat,connect_overtime_LA_EEG_12_P20_CTS_MTH_chanpair_12m.mat,connect_overtime_LA_EEG_12_P21_CTS_MTH_chanpair_12m.mat,connect_overtime_LA_EEG_12_P22_CTS_MTH_chanpair_12m.mat,connect_overtime_LA_EEG_12_P23_CTS_MTH_chanpair_12m.mat,connect_overtime_LA_EEG_12_P24_CTS_MTH_chanpair_12m.mat,connect_overtime_LA_EEG_12_P25_CTS_MTH_chanpair_12m.mat,connect_overtime_LA_EEG_12_P26_CTS_MTH_chanpair_12m.mat,connect_overtime_LA_EEG_12_P27_CTS_MTH_chanpair_12m.mat,connect_overtime_LA_EEG_12_P28_CTS_MTH_chanpair_12m.mat
-1000,cane,12m,OC,0.519300039539227,0.526549131486859,0.548875307576922,0.489799078850199,0.630018910929834,0.525078873077854,0.5081090524431,0.54745014768253,0.58688070039955,0.529281507148974,0.565449613335253,0.57930395065904,0.516224743726523,0.563975244883745,0.548791593806248,0.54232325565149,0.664566452635887,0.590447286518987,0.454144029807895
-990,cane,12m,OC,0.519899057644673,0.534917760870479,0.551881371713862,0.491588710500454,0.631643638543182,0.529549535045082,0.510842559071124,0.545779097877233,0.593108367179666,0.526003711790653,0.577209538803515,0.575630789942616,0.517387402981817,0.560690854785284,0.55321240073063,0.542823588006553,0.666617091874946,0.588877188965945,0.453323916705939
-980,cane,12m,OC,0.520505501308777,0.543379579818229,0.55651801235975,0.492560548863979,0.634010076716364,0.532877068505183,0.51278660281259,0.543948070698223,0.598208577260613,0.521382530368626,0.587759513518937,0.572161116976453,0.518332348474481,0.557476720152862,0.55695123267307,0.544310239284168,0.668156431436667,0.586700066580938,0.452479912640001
-970,cane,12m,OC,0.520911549397808,0.551209867766036,0.562433584331043,0.492647090035677,0.636860149176413,0.534507908747269,0.513887503736168,0.54256758368398,0.601958015706459,0.516910801536103,0.595519857420791,0.569125129801422,0.518861291384999,0.554282353761354,0.559909017957617,0.545661431482878,0.669047534605566,0.583691240455038,0.451536628388146
-960,cane,12m,OC,0.521340761526883,0.557710471170274,0.568568508728695,0.491192436638358,0.639747276903037,0.534899287753679,0.514479731695249,0.541134511562649,0.606217671338471,0.512486407907295,0.600087786442382,0.56676878407188,0.518619571157768,0.551239634487427,0.562129081088498,0.546409170418431,0.668923471544518,0.580043415355215,0.450714740625986
-950,cane,12m,OC,0.521410084361347,0.562902069126054,0.574654366529253,0.48856349481855,0.64269318854975,0.535139893774361,0.514435142763424,0.53904464358643,0.6097540688298,0.508189267569561,0.603410032051077,0.564993549926443,0.517236830504435,0.548474708833,0.563795908341279,0.545949417229968,0.66856317576203,0.5759010198951,0.451126973549608
-940,cane,12m,OC,0.520587112246061,0.567260829793715,0.580006117989715,0.485651120610156,0.64570808907772,0.536289140375424,0.513780480158359,0.536099709958061,0.612708301545941,0.50470544400397,0.606071340294352,0.563425343999439,0.514965594088565,0.546031358985641,0.564399774908571,0.544475036425103,0.667971630639479,0.571885575602468,0.452521078635025
-930,cane,12m,OC,0.519637830604578,0.570595740288824,0.585359883644975,0.483082666065922,0.648578978535032,0.538355708181731,0.512834828090319,0.532758633724005,0.615698191151359,0.503050815017451,0.608149644128765,0.561792859507076,0.512107920748639,0.543732111522932,0.564116069835852,0.54240717846527,0.667006144892457,0.568141991209442,0.454465808609534
-920,cane,12m,OC,0.518807243243664,0.573044256075421,0.591092777493492,0.480935835118083,0.650811901824475,0.541626814877617,0.512329968713179,0.529504868892909,0.619513037400115,0.503587922000385,0.609176178248399,0.559928165884293,0.508829346246445,0.541610733554359,0.563312847926772,0.539823452087605,0.665613099855446,0.564567705106623,0.456987365097431
-910,cane,12m,OC,0.517849333301738,0.575543134975986,0.596617569391365,0.478938995216108,0.652701431381903,0.546476926925697,0.513226966088561,0.526457258925099,0.62446714153841,0.506617720235777,0.609520732699995,0.557845793591904,0.505450692425396,0.539642522342418,0.563422304900697,0.537079952965192,0.664180840725233,0.56104949229345,0.459715822926841
-900,cane,12m,OC,0.51661085839678,0.57785850248996,0.601249467478248,0.476846775078374,0.65453377431749,0.553101786144647,0.513430810702625,0.523911516973934,0.630272362924208,0.510732504013931,0.609552065857361,0.555609670151785,0.502182584049169,0.537061550532343,0.564597383024121,0.533822757066789,0.66308859898474,0.55710251848742,0.462799292764873
-890,cane,12m,OC,0.515110210118681,0.579711483689954,0.604437884066025,0.475330158978079,0.656559882828564,0.561023846333884,0.512524091453279,0.521950437919711,0.636336278234614,0.514993352954123,0.609429574760217,0.553281024906492,0.499195657894289,0.534231904247598,0.567406735822223,0.530292655290415,0.662605687382848,0.553071617175494,0.466351284112514
-880,cane,12m,OC,0.513042561928092,0.580552960351841,0.606536634732167,0.474832128270433,0.658815685789577,0.56958148972414,0.510544420240249,0.519969087089805,0.64244441223346,0.519290304768174,0.609068833384633,0.551167315921622,0.496904891316664,0.531464108277661,0.571046068408255,0.526814956505548,0.662744753048921,0.549186683204372,0.468805649027986
-870,cane,12m,OC,0.510789550693997,0.579843725465239,0.606835394134397,0.4752682810705,0.661440690722135,0.578817223181913,0.507629369884152,0.517930671503484,0.648218885668696,0.52258903919798,0.609428940797567,0.549466989262909,0.494968551100728,0.529604610128282,0.574722719681274,0.524207264617581,0.663359207051933,0.54563100893495,0.470557911581403
-860,cane,12m,OC,0.508650928907808,0.577462372749779,0.605235718775782,0.477149409170583,0.66405447798123,0.587694273347016,0.504224348160787,0.515663995045203,0.653989372777291,0.525111965734504,0.610618858937395,0.548541204972233,0.493932957348719,0.529131924422776,0.57831253906682,0.522356419574174,0.663960288974158,0.542842125465072,0.472131866759058
-850,cane,12m,OC,0.50678931309944,0.573692269045616,0.602001332619599,0.481171918011012,0.665678897264636,0.596567884866176,0.500999698949729,0.5133709795706,0.659361837601309,0.526084512036676,0.61197473140881,0.548572265388326,0.494030804191346,0.529736635804303,0.581758249287477,0.52067922714608,0.664652933286156,0.540894191275838,0.473188965140213
-840,cane,12m,OC,0.505706988176557,0.569654683768448,0.59752404822291,0.486750977629901,0.665982196958728,0.605703257224653,0.498404736886639,0.511346167855787,0.664211026298641,0.525322284801732,0.613748479460503,0.54964874680622,0.495072899824554,0.530982396673365,0.585315018691848,0.519025139053712,0.665326646200902,0.539623931168193,0.473663167637508
-830,cane,12m,OC,0.506488895418892,0.565882746865875,0.592788718458863,0.493540739639952,0.665489634712831,0.614037083350833,0.496045579712992,0.509552535247146,0.667932400197359,0.523243471756902,0.615541609580064,0.551677923144943,0.496285637269158,0.532671064146155,0.589441731120913,0.516780675244611,0.666148696253294,0.538738627130668,0.474020420647905
-820,cane,12m,OC,0.508972989262774,0.562692872499006,0.588621904523818,0.501460067326036,0.663956237426696,0.621154749848856,0.495059799775903,0.508162883049741,0.67038454682206,0.52030508493264,0.616679058471561,0.554350758271355,0.497766213395635,0.53501160967874,0.593934362177825,0.513848252761812,0.667338053044661,0.538509681283026,0.474545130940921
-810,cane,12m,OC,0.512603242227362,0.559245187308491,0.583705826176509,0.510069868740559,0.661168881825547,0.628153909762979,0.494993747951139,0.506849822386482,0.671609402683346,0.516734291034808,0.617112834295261,0.557652866235273,0.499510358302726,0.53816888781684,0.597379938093918,0.510602673121041,0.668169548463383,0.539220743045046,0.475820228294102
-800,cane,12m,OC,0.516347243464633,0.555871966458659,0.577991239837002,0.519186541426628,0.657128547448661,0.635132837779693,0.494213014418279,0.505982113535842,0.671765969032024,0.512891340264261,0.61695952110184,0.561028780693549,0.501538588041425,0.541827918531474,0.599466503010626,0.508009406199109,0.668517573771753,0.540914740291522,0.477829871522441
-790,cane,12m,OC,0.519521076294996,0.552830966995399,0.57357020066965,0.528437927787246,0.651959275945829,0.642154202399528,0.492837822729043,0.505983048310379,0.671668827959326,0.508848813185029,0.616166223140288,0.564272745942673,0.503321643673568,0.545814880835032,0.600458393266363,0.505608429120641,0.668765891772366,0.54346030769401,0.480568270700988
-780,cane,12m,OC,0.521338204041594,0.550012415244295,0.56979587734887,0.53696076592244,0.645830609271781,0.649007633593309,0.490812882189791,0.506836587225479,0.671202844506633,0.504539153775751,0.614748450452293,0.567496235176544,0.504114430332962,0.550170257479304,0.600393393356824,0.502823966796316,0.668731230217429,0.546321168918112,0.48375789359908
-770,cane,12m,OC,0.52176126328307,0.54744399396652,0.566667031893528,0.544693988250678,0.638934892144401,0.655747314404214,0.487172540656129,0.507780346947288,0.669673169985231,0.500203687918775,0.612656219606137,0.570390617656495,0.503942978214363,0.554190232856475,0.599460328922294,0.500360426347136,0.668899501211441,0.549437157267566,0.487896202083904
-760,cane,12m,OC,0.521157248574899,0.545212168358555,0.564507839714998,0.551801620183512,0.631324785097923,0.661568772225706,0.482850540921678,0.508821218419687,0.667330148891324,0.495982220249534,0.609485407092304,0.573124010750606,0.502460995658288,0.557564704475734,0.598243235247442,0.498387405091828,0.66897443614388,0.552734228793064,0.492028894297732
-750,cane,12m,OC,0.520296309838594,0.543055355497916,0.564456608600016,0.55681520854202,0.623606250953021,0.666225521084126,0.478054040400185,0.509440398776955,0.664166854807278,0.492288310614442,0.605611173430376,0.575909467501959,0.500214447976721,0.559779384380102,0.596987843592279,0.497233784895394,0.669943378002567,0.555714541799462,0.496861680490327
-740,cane,12m,OC,0.519553911201064,0.541359475413187,0.566747888270407,0.559786553317863,0.616497389192853,0.669180090748888,0.472513047721913,0.509363594658113,0.659566153892455,0.488974817760361,0.601590232371148,0.578643684293222,0.497973847397018,0.560656319017778,0.595674690022353,0.497175181340748,0.671250526113662,0.55831551561469,0.502268462010958
-730,cane,12m,OC,0.519120462118236,0.54099120983854,0.569563390645697,0.561416015686461,0.610100278019598,0.671152046415895,0.465523086517736,0.509309760205659,0.653407277653103,0.486390376512311,0.596749035383139,0.581312677314512,0.496317686067184,0.56011589284112,0.594475029601022,0.49860493338851,0.672592208572606,0.560611617969994,0.507746429709688
-720,cane,12m,OC,0.519108238389962,0.541305249190457,0.572417605748273,0.562008664652961,0.604464057499841,0.672127593070022,0.456404251470075,0.509035537826123,0.646172254482215,0.484017484426168,0.591168509497553,0.584050212999683,0.495208280265322,0.558475880744133,0.593604480304,0.501462605750262,0.67310303012745,0.562396729767185,0.513480870327609
-710,cane,12m,OC,0.519499898145034,0.542567767633109,0.575015858135689,0.5612223456183,0.599370299505067,0.670933623405583,0.444908059366357,0.508475915789713,0.638709850494871,0.482383129969359,0.584475228705985,0.586846634047003,0.494862401091221,0.556173241290567,0.593041208609347,0.505283600941391,0.672705199501203,0.56425236652267,0.519451105232448
-700,cane,12m,OC,0.520461693549533,0.54413606773068,0.57556662566171,0.559443759690968,0.594798686322639,0.667399266011383,0.432456559971457,0.507878464533257,0.631623210903532,0.481786867737325,0.576576709150177,0.5898333263459,0.495598302015204,0.553441727162111,0.592192540220995,0.509602505638492,0.671185194231011,0.565763566717115,0.525914307571018
-690,cane,12m,OC,0.522398746250967,0.546307037073165,0.574781966068868,0.556998056013812,0.590432121836857,0.661992984410565,0.420506633707795,0.507591877233988,0.625033119088563,0.482460749034763,0.567761751943346,0.592720740472619,0.49755271161412,0.550451674903316,0.590726425603092,0.514584382866627,0.667951557106158,0.567372586926341,0.53268218560997
-680,cane,12m,OC,0.5248813767505,0.549100153751088,0.572532951990632,0.554953918598165,0.586497506021589,0.655435393621662,0.409072140082101,0.507649842082456,0.618510111428812,0.48437870499908,0.558161820249199,0.595478712246636,0.500411630840642,0.547695889353626,0.588623026338535,0.520899249248284,0.663541235260844,0.569261304933353,0.540118381642856
-670,cane,12m,OC,0.527684401701933,0.552506691290852,0.569035894421854,0.553325343570779,0.583073094926636,0.648346433889057,0.39957975194065,0.508136412511245,0.612439891897272,0.487682602702423,0.549266317275505,0.597764931706616,0.503250388381329,0.545414045105202,0.586611380526602,0.528073779271414,0.659004819412396,0.571067186852666,0.547553424592257
-660,cane,12m,OC,0.530284395901452,0.556823354335713,0.564588660723002,0.552209404419952,0.580349520755048,0.641513863600359,0.392502628454472,0.508633017691874,0.607619480065525,0.492695467620092,0.541285639845885,0.599912744261561,0.505797622335933,0.543661501046293,0.584944755253407,0.53582408043145,0.654533585157329,0.572380007063145,0.554277273473637
-650,cane,12m,OC,0.53152986308586,0.561077244457955,0.559459592881963,0.551704120841586,0.57824154028232,0.635247730678745,0.3885389415042,0.509564399841495,0.604167068550987,0.499434624821802,0.534327518550499,0.601808310726083,0.507932281619677,0.54241546141381,0.583818340511881,0.543835893508079,0.650241581343272,0.572508219258223,0.560330846123336
-640,cane,12m,OC,0.531617795357227,0.564224523819806,0.553995767141296,0.551487506290841,0.576695209956183,0.629257721539755,0.387317956653119,0.510182424056177,0.601933435306513,0.507372538968207,0.527945072979844,0.603251968877726,0.510297129774431,0.541386309376088,0.582948000051902,0.552166615711246,0.646258035411638,0.571715895439355,0.56560994634812
-630,cane,12m,OC,0.530748331065455,0.56627772588732,0.548469857319568,0.550748459822343,0.575701713427714,0.622984257694397,0.38688453444562,0.510288408362977,0.601110547063483,0.515489588067898,0.521274365463604,0.604540611537847,0.512575907361789,0.540597147654036,0.582803127103618,0.560921237144113,0.643147022549478,0.570392434313641,0.570294004134452
-620,cane,12m,OC,0.529009055542867,0.567233744302046,0.543118421086391,0.549558345347117,0.574981651112987,0.61514328961088,0.38782453369207,0.509500303796808,0.601551357942277,0.523018797015604,0.514207275251091,0.605843984338621,0.514085179745084,0.540121929096558,0.583803703044509,0.570001540322981,0.640434129020225,0.568971066198392,0.574667619865117
-610,cane,12m,OC,0.526106550510542,0.567047665198054,0.537868531182297,0.548107828721541,0.574223820503265,0.606783461753665,0.390024498424313,0.507240858382231,0.603056404248041,0.530218990099902,0.506671641003759,0.607263478323325,0.514894164646016,0.539789473946251,0.585772094671198,0.579359407774897,0.637456469537277,0.567554642424775,0.579056871524517
-600,cane,12m,OC,0.522621369922457,0.566327538786226,0.533076905654163,0.546831803514857,0.573678474061273,0.597599503573966,0.394093797610033,0.503856503778933,0.606182405939217,0.537295968791984,0.499220086679809,0.608408701119064,0.514689196903151,0.539747298013257,0.588741237525759,0.588265427111951,0.635348412332195,0.565988155470748,0.583449362232662
-590,cane,12m,OC,0.5186702860865,0.565374099109931,0.529072117996684,0.545684411921337,0.572867709351513,0.587885787007198,0.399999003468475,0.49927392915393,0.610472180726605,0.543884411913718,0.492166637872511,0.609009766144755,0.513831781783988,0.53981020106249,0.59282501192745,0.596638318725907,0.633289959427941,0.564309650794098,0.587861861260788
-580,cane,12m,OC,0.513737714069361,0.564479095407297,0.526386364489636,0.543834956633121,0.571934131424144,0.577681647683152,0.407069802619738,0.493437168726309,0.615652885907482,0.549828994417404,0.485087177227562,0.60901636543381,0.512846532234727,0.539977796931762,0.597191553303272,0.604622800074083,0.630683245264098,0.562761456391099,0.592186829329881
-570,cane,12m,OC,0.508208830495362,0.563621892330303,0.524848377286722,0.540694806081113,0.570836543880901,0.56681405124159,0.415503442777725,0.486989256595463,0.620570625637402,0.554713220221961,0.478258419087076,0.608248534717229,0.511904388554717,0.540688169047088,0.600844891955412,0.612266583208415,0.627260059275671,0.561288232903021,0.596085783813564
-560,cane,12m,OC,0.502061503321577,0.562957398466614,0.524044137028987,0.53521962727678,0.570347463291934,0.555558215843353,0.425163452763557,0.48068543552116,0.624524038552481,0.558152404893195,0.471540222236015,0.607119500037523,0.510783806581999,0.542080922527508,0.602978310136786,0.618935132747108,0.623012732346093,0.559487194182059,0.599633298188372
-550,cane,12m,OC,0.495421064537277,0.562950579088894,0.522723082542067,0.526431042542892,0.570298100528598,0.544954987014691,0.435127917815494,0.474764724929032,0.626877160679141,0.560238969946086,0.464322272719088,0.605892878423665,0.509049588693623,0.543771892638246,0.603804743445648,0.624525676756118,0.618934649562998,0.557225113434111,0.602848638125245
-540,cane,12m,OC,0.488811769794104,0.563470454317787,0.520968346888438,0.515088337920202,0.570857808932001,0.535898352007507,0.445120535214359,0.469335990362957,0.62685873721992,0.561787029364733,0.456960801044276,0.604737735894382,0.506365940248182,0.545689442892743,0.603463203971235,0.628764521142739,0.617347876243029,0.554984978616693,0.605380657108029
-530,cane,12m,OC,0.48325926012762,0.564457126730593,0.518656491244321,0.502860484647703,0.572227965559398,0.528753287466242,0.455412261006046,0.463195225861546,0.624691410868081,0.563151830746361,0.449797085671163,0.603505350702557,0.502474073988662,0.548038321390399,0.602029646481177,0.631039194841007,0.618774645343365,0.553457439110489,0.60789780944041
-520,cane,12m,OC,0.479469628169613,0.565976039280015,0.515214475432892,0.491234153717955,0.573917399304825,0.523348612205893,0.465053251447895,0.456426127448501,0.621304934849906,0.564753801868146,0.444175411901272,0.602216626172091,0.498306531026606,0.550833958552952,0.599916560408679,0.631318844388528,0.622941510560792,0.55216959236634,0.610206855243351
-510,cane,12m,OC,0.477287571069103,0.568380951915473,0.510648982342535,0.4798100307539,0.575912165763987,0.519104920208922,0.474232528553904,0.44969229252815,0.617154367147371,0.56622328869678,0.438943443627709,0.601036896378568,0.49390987852771,0.5538515838015,0.596773179108355,0.629071692161058,0.629142426728898,0.551633532019534,0.612256144586304
-500,cane,12m,OC,0.476828427115365,0.571754135104802,0.50589196875329,0.468839030958848,0.578205262899141,0.515500676335706,0.483836877689112,0.44420943903099,0.612171108318684,0.567447664206894,0.434320466330045,0.599656041052958,0.488952222518165,0.557085548478065,0.593284042868082,0.624628375965664,0.63641170228299,0.550880103573069,0.614277518758567
-490,cane,12m,OC,0.477642521248395,0.575453802714231,0.501626726742083,0.45909361724555,0.581010142972913,0.511512922456311,0.493283711581946,0.439950154571503,0.606961005848956,0.568697427105486,0.431839714401684,0.59774031084645,0.483413424891419,0.56042217428125,0.589669110735369,0.61899964431147,0.644135448619636,0.549450963075506,0.616236082027094
-480,cane,12m,OC,0.479433709916568,0.578620701624611,0.4976903973889,0.450090940596988,0.583829144576936,0.507371856795235,0.50192735104868,0.436481089369294,0.601583762621708,0.570029297961175,0.430507533151036,0.595387059234078,0.477338099570737,0.563557262278706,0.586094933123769,0.612475267655377,0.651506914802391,0.547610045127529,0.618023581838865
-470,cane,12m,OC,0.482049707834431,0.581147652950415,0.494330668772664,0.44243906109948,0.585499064097913,0.503710814841971,0.50946324974243,0.433888336464817,0.596497096217766,0.571328460441134,0.430124191771105,0.592443632297855,0.470780806573522,0.566997596962651,0.582343313347735,0.605193365792671,0.658514992009177,0.545515259545766,0.619181762584307
-460,cane,12m,OC,0.485290319781406,0.58307869464402,0.491858945877718,0.435960890321903,0.585606533995445,0.500749556791711,0.516733127968828,0.432706182721104,0.59201270809582,0.571964677511306,0.430800751198166,0.588827161699376,0.463973744338204,0.570489876560066,0.578657406174216,0.597078459801499,0.665153885777554,0.543956127845863,0.619964303093712
-450,cane,12m,OC,0.488803009871357,0.584309299677194,0.490418478836007,0.43197100878874,0.584237712793543,0.498494576926765,0.522993778408318,0.432769571904788,0.588642844841245,0.572087908604312,0.432404133713659,0.58506756035858,0.45776101507369,0.574044339492726,0.574370845283848,0.588062079526028,0.671577156959468,0.542676734162956,0.620188508200572
-440,cane,12m,OC,0.49206469354485,0.585208977256421,0.49019788686517,0.430400484796089,0.581896036444376,0.496762520648477,0.528638410030319,0.432865095058601,0.585557324659249,0.571675090196542,0.43497289061935,0.581080173954289,0.452328131702511,0.577605873168148,0.569345222286172,0.578006631044324,0.677852338657105,0.541355278220828,0.619716868814299
-430,cane,12m,OC,0.495000554466745,0.585804131246927,0.489716994952695,0.429603026149557,0.579558844927489,0.495013974141429,0.533658680453302,0.432957068244139,0.582761562886832,0.570884501579695,0.438965183563853,0.577330457491405,0.448483258104044,0.581063502829599,0.564059659016312,0.566462433423022,0.684002482326353,0.539797180584404,0.618915193777744
-420,cane,12m,OC,0.497561762155321,0.586024516067539,0.48811222148958,0.429261990757457,0.577265746378834,0.493247329050696,0.53741332669622,0.432866113877371,0.579858808366996,0.569987027289119,0.443888825005686,0.574103063906803,0.445982117989413,0.584452471632064,0.558897580531233,0.553440579419748,0.690236112436508,0.537836819993479,0.618090184714337
-410,cane,12m,OC,0.499953166849247,0.586294850287497,0.485248495798271,0.429458803917061,0.575176744964112,0.490778545814003,0.540257775175314,0.432105045699372,0.577356703222236,0.568332142517045,0.450427653730628,0.571582226561713,0.445420191856163,0.58773936020177,0.55387434351805,0.539215072202918,0.696172173348932,0.535511974095121,0.617127761028348
-400,cane,12m,OC,0.501853644172926,0.586887543433077,0.481534067649549,0.430661990351326,0.57347784965845,0.48795331741388,0.543125464298241,0.431349613181259,0.576187428492054,0.565882578450636,0.457903949335492,0.5698776496229,0.446565430215141,0.591291851709194,0.549101869839886,0.524604358804565,0.701566798562118,0.532539289570936,0.616227077016979
-390,cane,12m,OC,0.503915941499481,0.587411859965589,0.476921251852271,0.432726238235857,0.572393143371593,0.484703143419085,0.545968264179798,0.431217828783757,0.575110226727829,0.563542174256687,0.465739415634926,0.567819001681701,0.449533141254913,0.595003124310089,0.544666672910286,0.510619881006724,0.70577092132521,0.528768986734408,0.615549158746147
-380,cane,12m,OC,0.50678808916657,0.588346102913036,0.471907624009925,0.435699170276363,0.572030469117658,0.481479668708887,0.549182788448801,0.432203468163294,0.574872424996234,0.561380610258521,0.473713958936701,0.565536087975422,0.453859383389411,0.598955449126863,0.540645354341892,0.497607278928268,0.708825468149829,0.524871654103217,0.614765940800618
-370,cane,12m,OC,0.509748584668357,0.589438895042576,0.46807042070708,0.43885389418881,0.571923518817692,0.478142758991739,0.553360782975556,0.434268613385344,0.577044062039791,0.559366175656229,0.482183477888322,0.562805500646865,0.459043227641842,0.603131333752007,0.537466225931741,0.485678346050589,0.711131377772355,0.52095945180255,0.61358776477322
-360,cane,12m,OC,0.512889746465881,0.590725719963507,0.465503180824107,0.441894653172308,0.572295014509138,0.474634840361563,0.557988049773979,0.437790172620382,0.581453047018134,0.557659600415369,0.489152517024375,0.559444682813773,0.463560281724278,0.607237674493025,0.535026224423238,0.475536803348982,0.713187060130422,0.517827882195349,0.612385575912362
-350,cane,12m,OC,0.515991967006748,0.591171948780512,0.463988821723543,0.444876902524086,0.573620933373793,0.47209613330017,0.562663155338293,0.442961332086496,0.585115019680331,0.556032075464036,0.495012625602967,0.555705303189274,0.467722340026136,0.611199913296004,0.532629833884275,0.467280712441202,0.714659490885871,0.515282804970913,0.611762992572733
-340,cane,12m,OC,0.518938622491002,0.590221289291409,0.463240115909191,0.44702228140319,0.575710492979542,0.469741998266095,0.566885610248625,0.448727535837723,0.588379120690655,0.554364987052661,0.499641231084881,0.551988869499766,0.472401755646985,0.614671250531816,0.530299129431914,0.46100372978967,0.714935075984173,0.513002389119076,0.612469674721506
-330,cane,12m,OC,0.521726342198591,0.587194650389978,0.46306337297475,0.448961260681431,0.578249788978879,0.468055047612357,0.569586985536638,0.454466624270148,0.591253826999201,0.552456447926239,0.502658427532193,0.548168362030766,0.477555299590087,0.617511788609804,0.528160302833994,0.456462685071388,0.713934824020971,0.511747255499161,0.614212763474577
-320,cane,12m,OC,0.524346194437936,0.582360967176231,0.463825282379841,0.451315419928498,0.582120019363715,0.466977168467497,0.570676108505108,0.460104763684583,0.593969535327529,0.550570525119753,0.505404714059779,0.544312231509912,0.483684217225908,0.620365068737852,0.526322362130112,0.454319644825609,0.711408609343715,0.510896119676646,0.616215843283829
-310,cane,12m,OC,0.52654813693394,0.575861950552172,0.464931736057079,0.45388596580994,0.587000969002837,0.467453157771341,0.570660666538376,0.465304753268122,0.595653423589828,0.549264997047954,0.507433932142914,0.541045136676964,0.490780470039473,0.623659915659496,0.524369868382413,0.454199184329034,0.706767650149246,0.510509854417503,0.617561310423024
-300,cane,12m,OC,0.527755575986556,0.568413818912963,0.465118418067978,0.456496408359129,0.592236116496639,0.469459515090543,0.569438813298764,0.469469402098414,0.595837255448072,0.548981882419418,0.507848248777416,0.539268230887882,0.498644901373881,0.627863932791574,0.52220224701928,0.455166223449625,0.700483141386376,0.5106281546257,0.617891376041077
-290,cane,12m,OC,0.528136312451435,0.560601292323846,0.465330287894424,0.459020828308483,0.597835841123382,0.471720552459744,0.56766457097999,0.471977502185584,0.594821793549649,0.549578459452429,0.507044492286376,0.539009518299446,0.507164004230289,0.632831638095734,0.519914224096779,0.456300922806954,0.692560743190109,0.51129709378641,0.616939957996979
-280,cane,12m,OC,0.528309159883183,0.552790015091375,0.466658468380769,0.461067468649088,0.603718762631364,0.475095346991542,0.566015632627096,0.472505044794304,0.592452598145902,0.550144132651922,0.505558584969236,0.539163648076536,0.516176628292392,0.637376439408182,0.517543920272786,0.457424961714517,0.684200381513216,0.51214267069085,0.614256155731325
-270,cane,12m,OC,0.52822044896369,0.545175425932959,0.469865637833419,0.462552658778558,0.609525219906618,0.479100925558358,0.564573652603438,0.470973730657239,0.588650671203815,0.550155609171101,0.503499454581515,0.53942971290368,0.524743723528728,0.640571276155391,0.515375456188024,0.458795182917711,0.676204691597757,0.51240241156624,0.610577539482626
-260,cane,12m,OC,0.527691085719651,0.53761161023839,0.474849909885926,0.463301790772263,0.614877546076098,0.48295408034083,0.562886092923137,0.468646865996926,0.583760213954139,0.550093398245633,0.501054717060023,0.539997063008221,0.531218765337823,0.641786168277059,0.51264143411671,0.461076083902852,0.668725636016866,0.511403555494279,0.606701233579963
-250,cane,12m,OC,0.526808593690752,0.529866874072334,0.48039801066599,0.46421330299818,0.619757052104159,0.487099754015097,0.560849566971436,0.466488797737193,0.577975304448839,0.550331805791615,0.498111438080599,0.541044799091838,0.535257673755494,0.641622930663289,0.509390200466221,0.464290150609301,0.662371200060271,0.509409129059444,0.603331210210832
-240,cane,12m,OC,0.5254383381141,0.522789941283881,0.485960232512628,0.465579254904262,0.624233504745333,0.491719271123424,0.558546509428521,0.465195369774173,0.571128636247802,0.550981441130086,0.494854272591288,0.542424846098946,0.537371369384756,0.640885927325316,0.506312720138927,0.468607517872714,0.656749680947572,0.506901730298774,0.600939767548836
-230,cane,12m,OC,0.523647939992176,0.517197306717991,0.489431365692801,0.466973810096151,0.628368221726243,0.495833579621048,0.555200724317087,0.464444244622301,0.562580727835945,0.55190001565648,0.492385421873771,0.544269363466509,0.538442788903318,0.640108877992555,0.503690800606074,0.473904993817445,0.651722374811073,0.504256952631178,0.599290085232649
-220,cane,12m,OC,0.520870721038313,0.512881829819712,0.490939669754847,0.467357916970663,0.632113859348977,0.499832316780888,0.551025527449102,0.463793220383515,0.552992485682434,0.553126863728117,0.491425202529159,0.546800628323884,0.538936082098273,0.639457312170052,0.501667038764946,0.479961747972484,0.646519521577577,0.501525038754481,0.597926543482337
-210,cane,12m,OC,0.517238537826716,0.509864837815391,0.491263909019163,0.46710793452914,0.635520298428951,0.50396397916254,0.546245827990949,0.463703100253754,0.543503083447956,0.553752825962822,0.490888698173562,0.549915970739652,0.539193089252255,0.638876889311659,0.501070535355343,0.486923919437589,0.640794375538387,0.498440084253182,0.596691671841032
-200,cane,12m,OC,0.512821439017635,0.507561311581056,0.490228293057842,0.4666957370528,0.638245343771042,0.508081021030619,0.541250080721435,0.464543283086268,0.534643584454033,0.554187330242337,0.490536463505199,0.553358359507377,0.540222411512648,0.638828861479103,0.502149471004992,0.494678498810383,0.63467025744461,0.494652189983361,0.595921190311191
-190,cane,12m,OC,0.508283187066415,0.505886382474849,0.487109339620957,0.466551860873892,0.639842443335493,0.511067790578617,0.535946338942199,0.466316132717375,0.52710274968468,0.554953936450099,0.490751147620822,0.557191495114773,0.541948476408404,0.638961687842576,0.504257289648791,0.503231294506638,0.627994457251407,0.49072247063464,0.595982764794375
-180,cane,12m,OC,0.503582558757395,0.504188925750697,0.481674016902133,0.466889816021766,0.640778193872938,0.512623294381978,0.530721704366014,0.468874320265982,0.520434804505646,0.556204539071836,0.492485111834126,0.561502960315364,0.543706617082821,0.638921176640163,0.506757994317609,0.512784698034407,0.62071213516411,0.487559280029005,0.596948695350469
-170,cane,12m,OC,0.498931859709809,0.502085002884732,0.475266629474619,0.468276014195127,0.641100948725477,0.513965314971505,0.525527966971699,0.471969378382352,0.514433822074535,0.557765377141645,0.495590038903013,0.565967967065697,0.545657906561397,0.639043557762879,0.509549630367003,0.524228891504688,0.612992629542015,0.485059400155026,0.59828567736118
-160,cane,12m,OC,0.495203161979868,0.500210840266667,0.469434816610028,0.470773454071434,0.640971412777616,0.514793485617433,0.5207103403136,0.475085715685133,0.508789246251817,0.559038077714142,0.499850093228595,0.570188229359963,0.548219295449704,0.639227229828485,0.511948350609123,0.537504633023564,0.605065047409062,0.482916882564322,0.599395399079551
-150,cane,12m,OC,0.49237453563348,0.499069670757749,0.466603644681978,0.474200123022589,0.640495237813233,0.516048789912722,0.516641802014832,0.47862281582346,0.503437325524108,0.559552353248327,0.505578162350085,0.574273619208417,0.551283778865426,0.638727950038764,0.513562379025983,0.552761405700165,0.597354569293535,0.481367490246651,0.599874925013058
-140,cane,12m,OC,0.491014871854196,0.49839149650338,0.465647031659893,0.477732573878574,0.640226005093965,0.517103643635783,0.513316992405385,0.482558199165146,0.498340838440044,0.558839255332779,0.512211510692215,0.578403956589309,0.554822537923972,0.637627301961399,0.514828180655534,0.568816286256434,0.590670312049628,0.48036235053906,0.600188846946369
-130,cane,12m,OC,0.490294415434626,0.497911314271204,0.465954270693801,0.48104914005783,0.640574148351581,0.518391100441842,0.510465683715365,0.4866618719918,0.493268337355293,0.55663949736028,0.518761733825949,0.582221819650999,0.558571806189241,0.636159732682242,0.516407034128054,0.584531909704999,0.585116060173843,0.479631755276587,0.600035710853321
-120,cane,12m,OC,0.490572742882166,0.497827375679784,0.467453056049439,0.484108625885119,0.641309388322009,0.520520693257182,0.508250976862942,0.490509724551194,0.488190210530764,0.553164809889156,0.523642475618301,0.585242178463757,0.561695635257751,0.633563153598093,0.517803930625302,0.599175792199571,0.580936300007454,0.478933860892941,0.59958545976863
-110,cane,12m,OC,0.492510248786199,0.498245767938702,0.471088360261099,0.487229061984094,0.642497400808554,0.523310223981991,0.50693974915965,0.494136241161248,0.482777969951655,0.548019954503052,0.527107375824032,0.587807490326455,0.564729617575536,0.629699369188121,0.519238368883023,0.612224738531774,0.578921624695493,0.478026978249181,0.599154040490202
-100,cane,12m,OC,0.495691061339173,0.498417736344163,0.477082378713604,0.490313898588517,0.643761850040322,0.52608613644334,0.506092431097803,0.496572257750778,0.477386500927174,0.542105593301019,0.530160253622324,0.589999268320928,0.568293239549566,0.624977814342053,0.520832667672518,0.622711223376959,0.578681489118208,0.476835730612665,0.598901357891338
-90,cane,12m,OC,0.499820112192729,0.497937486676058,0.485142436309326,0.492987727329568,0.644783830866602,0.528798204938068,0.505418590518631,0.498488271175571,0.471718987547377,0.536214551585863,0.53305349298604,0.591439207756353,0.571944599919919,0.619728680346988,0.522120233683571,0.630452307853428,0.578838086972888,0.475684871266018,0.598350149677116
-80,cane,12m,OC,0.504670691308417,0.496699948734379,0.494745527029358,0.496079185542494,0.645627356601567,0.531762594951799,0.504713670685664,0.500007758501867,0.466225571641818,0.531227492698156,0.535919151638425,0.592150021842176,0.575845178655795,0.614336363621034,0.523287719724137,0.634827894097495,0.578868192324539,0.474437048949837,0.596595370169457
-70,cane,12m,OC,0.509583549367181,0.49485692332674,0.504832082693789,0.499659824125396,0.646806148785479,0.535870526767363,0.503938056924971,0.50043872544503,0.461827361623317,0.527947329760444,0.538847537995748,0.59179154831884,0.579455736151205,0.608818701374887,0.524903481973301,0.63663184494294,0.578966898702652,0.473280341570731,0.594128579781687
-60,cane,12m,OC,0.514721377215372,0.492525829251236,0.513977890038903,0.504205849031401,0.647522479536834,0.5408022186057,0.502897538775484,0.499906092996222,0.458993502570244,0.526797571329813,0.541467095069955,0.59047198261295,0.582501808701875,0.603166214502921,0.52714778299022,0.636085150393901,0.579168250280324,0.472410648547633,0.591080272943629
-50,cane,12m,OC,0.519680955298418,0.489715898393236,0.520926861709205,0.509884839880016,0.647014461374548,0.546281969346153,0.500676828906857,0.499044363047975,0.457299639136355,0.526645655428249,0.544530008464884,0.588308764017599,0.584804633823227,0.59813707872946,0.530313593975576,0.634075848639429,0.579419678058185,0.472197050016787,0.587278336085505
-40,cane,12m,OC,0.523992202882015,0.48645835612368,0.524488368379928,0.516222851869195,0.645332761155061,0.55224117467599,0.497781732966923,0.498071648260363,0.455487075175817,0.526750695813742,0.548747170574764,0.584913926437706,0.586072447575967,0.593704858107934,0.534303462230235,0.630689166287714,0.579182982621054,0.472438240221191,0.582374712823212
-30,cane,12m,OC,0.52730434191282,0.482617537402778,0.526382182722284,0.522990610931848,0.64307227438072,0.558306133153926,0.494968515609745,0.49767530222747,0.453527934812944,0.527388222073635,0.554205605351628,0.580391645469581,0.586396992257488,0.589774186594902,0.539329056637951,0.625611351866452,0.578417992063128,0.472955147648453,0.57658242583456
-20,cane,12m,OC,0.530034056532424,0.478540367292605,0.526495369687508,0.530067142113232,0.640652250232136,0.564302994925852,0.492779277147783,0.498545303850084,0.451930895768078,0.528252166137844,0.560580686683742,0.57493364365087,0.586306726975637,0.586458860784723,0.545566743951169,0.619025262290952,0.577766093486136,0.474148383891133,0.569503763879001
-10,cane,12m,OC,0.531852810092793,0.474674060215821,0.526325193029315,0.537095323067773,0.638828235534865,0.569965432860361,0.491881587963074,0.499771942233619,0.451796953167272,0.52871657616258,0.566247898384606,0.569021322201695,0.585746979389383,0.583611818869005,0.552448433076669,0.611229730524394,0.577431008967133,0.476087228834125,0.561696706377147
0,cane,12m,OC,0.532773003717125,0.471488242006856,0.526187015129096,0.544054056782542,0.637034456929288,0.575361786586264,0.491398572646609,0.501161980736119,0.453859706321289,0.528561436991284,0.571329350920808,0.563609602811524,0.584678012426435,0.581063575560187,0.558980683579634,0.603005156097141,0.577416013313658,0.478740650332971,0.554312251369343
10,cane,12m,OC,0.533118349360333,0.469204636028299,0.526724987613549,0.552024095624762,0.63428262084131,0.580379976199759,0.491211506932969,0.503264723560586,0.458778037880134,0.528259341038114,0.575746056922836,0.558644212270283,0.582315476891162,0.579300786952006,0.5645250751509,0.595355522897304,0.577526545766338,0.481415345078614,0.547984601867033
20,cane,12m,OC,0.533035971037431,0.467454136520635,0.527513749507052,0.558856895140859,0.630802851350378,0.584523347697521,0.490708846945538,0.505798907426411,0.464840464172763,0.527547404155942,0.578962475307696,0.553909091616861,0.57904198768882,0.578382316835986,0.568693732168275,0.588126205729792,0.578263133369072,0.483810596336731,0.542863708917764
30,cane,12m,OC,0.532612062187227,0.46493015485741,0.528369588119972,0.564325653945319,0.626603380634573,0.587978618547092,0.489529301051031,0.508680354483537,0.471545484842518,0.526627068599782,0.581195746825869,0.549367786964949,0.575252001219374,0.577810249626637,0.571802713163239,0.5815907303376,0.579679741515217,0.486121575680747,0.539271709813752
40,cane,12m,OC,0.531900804413531,0.461576226192868,0.52893242982237,0.568709240011345,0.621830825354352,0.590819331139946,0.487564450695675,0.511577446764813,0.477283386849812,0.525540486632434,0.582132725062666,0.545155918551691,0.571243633423726,0.577325287394654,0.574686745199066,0.575865767088988,0.581901531576343,0.487731263862599,0.536983376780239
50,cane,12m,OC,0.531279809896948,0.457366952447407,0.529422560069136,0.572639544698781,0.617215386425649,0.592705094380386,0.485367445607766,0.514173080565426,0.482733848167105,0.524442494167841,0.582403926399809,0.541392316393163,0.5673636920045,0.576811938603591,0.577506196480708,0.570664596898974,0.58516100946147,0.488103462187084,0.53602275658459
60,cane,12m,OC,0.530576566293994,0.452099122666593,0.530896355909732,0.575610727485826,0.613216682498144,0.593204354828149,0.48355269425483,0.517046754896968,0.487881382773483,0.523212224700724,0.581403507572428,0.538307362971471,0.563679171652121,0.576515047643184,0.579838925023145,0.565790902029584,0.588390260668148,0.487770650425754,0.536241165942393
70,cane,12m,OC,0.529048652273575,0.445975644010295,0.534395705540573,0.577310913114368,0.610046216229822,0.59299802042955,0.483074465329057,0.52023576844251,0.492329896073016,0.521967753662026,0.579940824883171,0.53576137625898,0.560124015384181,0.576439262283477,0.581296062470026,0.561887322620283,0.591497968807648,0.486387147681798,0.537808165111362
80,cane,12m,OC,0.526808505736101,0.439291911366843,0.538806475156727,0.577509537904786,0.607518070243231,0.592042557513284,0.483986874292099,0.523519960822051,0.495894393582991,0.520644330661553,0.578309196995451,0.533397846019263,0.556989112289488,0.57667705754496,0.582411655085299,0.559670272956427,0.594978789593705,0.484236691565461,0.539585307833146
90,cane,12m,OC,0.524413076496566,0.432979179334988,0.542556846376783,0.57673143302389,0.60567839697399,0.589829757735509,0.486406870045736,0.526903211962734,0.498367415261987,0.519723237290951,0.576715840299932,0.531413623138865,0.554604332522501,0.576548821294216,0.583935638089095,0.559593464944414,0.597541248020578,0.48182972890463,0.541055946184575
100,cane,12m,OC,0.521948225306424,0.427462999799411,0.546019454500877,0.574829229262713,0.604653428886455,0.586930578210754,0.489387161087908,0.530299242808237,0.500803034116589,0.519258414865352,0.574885985804967,0.530597974175306,0.55284280194089,0.575825624762082,0.585553513336812,0.561903591520449,0.59908382585835,0.480466587252619,0.542010267927661
110,cane,12m,OC,0.519645342310022,0.423027905728157,0.5495300847879,0.571717025827683,0.604380909005719,0.583980039337323,0.492907895026344,0.533436594066785,0.503939246794744,0.519314158148363,0.571460772974891,0.530728307697689,0.551917795555142,0.575126833049299,0.586764675888674,0.566347279208421,0.59995059865361,0.480198406026673,0.542599177000603
120,cane,12m,OC,0.517104571728682,0.420171394262338,0.552609707099241,0.568208017938812,0.604563635223179,0.580935292770094,0.497037042069617,0.536409125318259,0.506921306680432,0.520615181606755,0.566145874939889,0.531524266187036,0.551869839552506,0.574261849987102,0.58774097857957,0.57172878519224,0.600236521882294,0.480540935249498,0.543195328692757
130,cane,12m,OC,0.513780094009343,0.41927211174996,0.554262643436303,0.566468094547699,0.605233290209611,0.577971790775552,0.50113867006097,0.53882017396263,0.509444216095886,0.522937548208564,0.559575052313322,0.533267156010817,0.55241038847352,0.573328338025689,0.588716908360447,0.576527676591227,0.600913626308034,0.481554952181952,0.543830756955708
140,cane,12m,OC,0.509511069437623,0.420317116306661,0.554099172421293,0.565447051522117,0.606375305342855,0.574963590664604,0.505761139907888,0.539956453855491,0.511303817121951,0.526011234262852,0.552120994653034,0.536291036318615,0.553053630916439,0.572222028869087,0.589641599168044,0.579676839425114,0.602480610918332,0.483481857953777,0.544695677235137
150,cane,12m,OC,0.504590983106653,0.422534051158438,0.552522151603997,0.564548932467175,0.608078923988252,0.572060045596534,0.511098646726589,0.539936556440963,0.512318990212858,0.529415875527536,0.544243052892019,0.54051917802018,0.553714592222236,0.571022776360962,0.589987012403706,0.58087446070236,0.60565870695713,0.486061828224206,0.545340094569729
160,cane,12m,OC,0.49940612547107,0.425897524519649,0.549769026323384,0.563410354646101,0.610165498518301,0.569509383452883,0.518028606849721,0.539019557834996,0.51276445786114,0.532984040242348,0.53744195493349,0.545568522491659,0.554330242737603,0.569682682231677,0.589933467008059,0.580432101191972,0.609036583785454,0.489191189996018,0.546398745508632
170,cane,12m,OC,0.49405365515628,0.430245784159958,0.546313956314593,0.560974539145953,0.612561782852113,0.566733297937045,0.52528285611364,0.536890780633998,0.512423447376178,0.536223067386277,0.531613214123118,0.550813882786207,0.554741600936694,0.568683954568222,0.589446849354736,0.578647125182538,0.612588626130806,0.4929864401823,0.548063562658885
180,cane,12m,OC,0.489030453833039,0.435271375193772,0.542596331751777,0.557749983714391,0.61526363583123,0.564602080568727,0.532199352359965,0.533855369688876,0.511145166689335,0.539493682831941,0.526479283880521,0.556301806975126,0.554896390997118,0.568193371735291,0.588369287512753,0.575732030600374,0.616263333689189,0.497468566222268,0.549958938835127
190,cane,12m,OC,0.484583135489657,0.439901735886464,0.539602787372879,0.553893378067017,0.618005283193498,0.564152454330603,0.538460130578547,0.530314600913315,0.509222545033532,0.542707248993826,0.522501961696253,0.561809453388207,0.554704191247463,0.568466498868693,0.587014875786415,0.572129565166578,0.620300187970184,0.501821264629082,0.552393996477874
200,cane,12m,OC,0.48022592491191,0.44440799732412,0.537898698864913,0.549528470710862,0.620722293469885,0.565232668419517,0.543884302120631,0.527444208149129,0.50546008293192,0.545171236563836,0.520457664250097,0.567246189468208,0.554999617846183,0.569626203824973,0.585359325209095,0.568004991499128,0.624745354972281,0.505782007424682,0.55558692463471
210,cane,12m,OC,0.475954851747075,0.448686526229896,0.536724812308931,0.545024015286832,0.623436435405264,0.567533252527293,0.547193946763735,0.525059234236072,0.500290280552065,0.547002945990998,0.520105827508804,0.572553286273021,0.556139980749473,0.571024054281701,0.583464752308681,0.563365821588817,0.628926529152408,0.509000812677636,0.55959054395068
220,cane,12m,OC,0.471834414539457,0.452501263698461,0.535875493689274,0.540665677438775,0.626033806875632,0.57088324996359,0.548897228658514,0.5227883706849,0.494106793479761,0.548696166860686,0.520233265794606,0.577198989677464,0.558071635097702,0.572796800189577,0.581153653314058,0.558619358791949,0.632317751581257,0.511097337132226,0.563592661909879
230,cane,12m,OC,0.467904972587778,0.456015712141232,0.534588776524225,0.536733777330373,0.628425529306758,0.57483142790279,0.549698666702075,0.521083960000566,0.487340412570779,0.550526554407182,0.520797473390066,0.580557406731822,0.560426544496352,0.574496441983934,0.578098530491996,0.553644240481671,0.635871904866565,0.511745334107852,0.566586677021312
240,cane,12m,OC,0.464821047110668,0.458897552320668,0.532664344236391,0.532895013033604,0.631081642056627,0.578691141952529,0.548952066120971,0.519852848429568,0.480290816323601,0.552235217062326,0.521229035093633,0.582514111922106,0.563291409648415,0.575638941303382,0.574458702116863,0.54836429280377,0.639398837191743,0.511076250935185,0.568466206813694
250,cane,12m,OC,0.462908398451012,0.460512277477836,0.53016111020094,0.529924571878677,0.634121732807477,0.582222371171623,0.547845209728913,0.519115923873433,0.472421441990519,0.554191495526595,0.521392279382262,0.583195901510382,0.566052701530086,0.576043047093565,0.570053118299376,0.542773745801057,0.642908597627419,0.509270425528468,0.569296319275539
260,cane,12m,OC,0.461640115598883,0.461459450585697,0.527096939841022,0.5282656475666,0.637548968774614,0.586149285764389,0.546505237937052,0.518697997633399,0.463757145666638,0.556562104375216,0.521565386515067,0.582908594451444,0.568885728839614,0.575387207904995,0.564983892444673,0.536487855270872,0.646567859927918,0.506458688480065,0.569724788229982
270,cane,12m,OC,0.460239073511806,0.463470138319102,0.523681774112713,0.528493429186124,0.641144153413163,0.590459137957512,0.544809440427931,0.518556285842224,0.454556628918742,0.558889138443275,0.521676800337888,0.582132646240159,0.571398746119132,0.573928387303331,0.559608658081134,0.528977640038437,0.651204457049559,0.503779109622786,0.570036773766887
280,cane,12m,OC,0.459224157509022,0.465847736566924,0.519981691606665,0.530718846057155,0.644406702783041,0.594562829591341,0.543738616121618,0.518411400320462,0.445613692964653,0.560517445954682,0.521418256493257,0.581245396133044,0.573560456490198,0.572089232714319,0.55397988740066,0.521423708619908,0.657250039810397,0.501683981650198,0.569811209110749
290,cane,12m,OC,0.458859628976289,0.468345067962987,0.515228264730575,0.534970806788929,0.647301700367996,0.597420196625584,0.542388476882698,0.517894439881858,0.43775440662196,0.560836332036253,0.520696839413843,0.580257846725708,0.575494100601875,0.569778173517584,0.54777409532816,0.515352978831737,0.664438058353529,0.500555586350179,0.569585304890384
300,cane,12m,OC,0.459264912054025,0.47069020140214,0.509391092107448,0.539905344884927,0.649524898769654,0.59805803077774,0.540590233328223,0.516981907766212,0.430705101074571,0.560099625287209,0.519735292575854,0.57924290873328,0.576948079943572,0.567204411763964,0.541774186825573,0.511074661938622,0.671967747414642,0.500526246930255,0.568957575101037
310,cane,12m,OC,0.460500112430897,0.472717706820472,0.503317999367757,0.544947154058331,0.650895215479762,0.596836951981549,0.537874693183825,0.515469131381319,0.425220997069298,0.558015259673659,0.519465387799239,0.578343555334815,0.577559165222572,0.56477584463283,0.535717449104563,0.507835407628205,0.678803221519386,0.501487179885831,0.567927001714856
320,cane,12m,OC,0.462895949059873,0.474293047808016,0.496901777331828,0.549836064303275,0.652210453994301,0.594414254192824,0.533068991630002,0.512776448394292,0.421733908418156,0.554541850073008,0.519867748602058,0.577401825392417,0.577274928992401,0.562368127883591,0.52983383094104,0.506019211086294,0.68416116089275,0.50379827027937,0.566350861620875
330,cane,12m,OC,0.466527748746878,0.475277053043127,0.490042551937665,0.554948389214028,0.654139578317024,0.590529336415748,0.526845458133053,0.509001795663164,0.420307939830326,0.550080425491778,0.521275391689034,0.57630910866413,0.576423737618446,0.559839232751437,0.524057264128207,0.504850432855155,0.688247906150475,0.50696224842997,0.564253997021156
340,cane,12m,OC,0.471015293652052,0.475755475598758,0.483981023194829,0.55986398027916,0.655844424566965,0.585549027080446,0.519910848991027,0.504885085398705,0.420592996010217,0.545082524289627,0.523857178004616,0.575152964679573,0.57531474203212,0.557549181996493,0.519616917030655,0.503531339041764,0.691365964457966,0.510360557404466,0.561655471358192
350,cane,12m,OC,0.476065904593586,0.475903431092532,0.479209056887256,0.564418055277195,0.656753935993311,0.579064994238729,0.512495602429678,0.500836858674865,0.42261421452871,0.539603650922785,0.52719128048527,0.574341705827225,0.575073789608356,0.5557649443115,0.517346337510026,0.501423821772791,0.69299936082278,0.514231416889438,0.559462792674712
360,cane,12m,OC,0.481018468618864,0.475862079247883,0.476496367871254,0.568179262966668,0.657001578913737,0.570921030396054,0.504897303480486,0.497497284690179,0.427061221903246,0.534624583754733,0.531515788166296,0.573841449840149,0.575612325228456,0.554719657882068,0.517575420580614,0.498863193311008,0.69340258563731,0.518279474832309,0.557327596468525
370,cane,12m,OC,0.485911929211013,0.476041952017575,0.475639222982614,0.570659551212405,0.656576823699179,0.561312123542511,0.496747370702666,0.495200525912562,0.434694527452295,0.530606691100323,0.536418799461587,0.573649570466542,0.57671817177598,0.554476544925841,0.519521962675209,0.496271124065315,0.693178406474311,0.522719155066092,0.555662509062022
380,cane,12m,OC,0.491088283981718,0.476606463539251,0.476603023251049,0.571981424887472,0.655209545468497,0.550522546612101,0.487694212784932,0.493492419887994,0.444561171277802,0.52693545436368,0.541539633042026,0.57364583530126,0.577912013664889,0.55511954091362,0.521749097240419,0.494882859766431,0.69272746775694,0.527394874656735,0.554885252462528
390,cane,12m,OC,0.495383465671305,0.477800185222804,0.479462572904441,0.572394271046598,0.653296357451998,0.538712287296611,0.477263393493046,0.492688713559654,0.454855912952511,0.523129389883521,0.546084629547335,0.573896152583621,0.57889757904243,0.556401465193932,0.524806339682004,0.495196577342177,0.691927421980059,0.532468513801173,0.554809342214402
400,cane,12m,OC,0.49873643633096,0.479927960765294,0.48404022585877,0.572076097675704,0.6511522995025,0.52590741580734,0.465467776301205,0.492654774894933,0.463533600685995,0.519191292417513,0.549874383946692,0.573801684241418,0.579337552203759,0.557618615446518,0.528873590914951,0.497216905168482,0.690880509678512,0.537163182221676,0.555310607848082
410,cane,12m,OC,0.501166300282974,0.48276315175369,0.48984494802873,0.571662010567097,0.649187125070206,0.512836116900779,0.452706184710093,0.493479327295171,0.470353008775442,0.5150074150408,0.552265122085758,0.573486654535591,0.579419115977583,0.55884264963157,0.53345412168683,0.500923402896044,0.689248351826729,0.541762364057359,0.556380295644852
420,cane,12m,OC,0.50306060703052,0.48532473981949,0.495610766756899,0.572023635197293,0.646655177289835,0.499948543481826,0.439969574145655,0.494844226896869,0.475771074926623,0.511103736494147,0.55170739874744,0.572701418297713,0.579860040208499,0.560388578540807,0.538315523747653,0.505806991321713,0.686938140669695,0.546396450399874,0.557289974924422
430,cane,12m,OC,0.503653443869865,0.48765280081772,0.500380360219573,0.572831967431189,0.643692319236071,0.486895929410953,0.428326051412943,0.49670144922663,0.479275664546247,0.50809388574301,0.548476524409252,0.571191933730533,0.580505509150307,0.562246447709854,0.543418458021453,0.511596784717495,0.683624021932273,0.550891104903867,0.557842388572522
440,cane,12m,OC,0.502835157083185,0.489589613305442,0.504872524074285,0.573571078727056,0.640275125077289,0.474248306082655,0.418052843072096,0.499285647332992,0.481240633386588,0.50586065251381,0.543315944115739,0.569101660773044,0.581137990435253,0.564340417916054,0.548311342233338,0.518107902638139,0.679485215087797,0.555134311991458,0.558235281232103
450,cane,12m,OC,0.501265032990239,0.49064232841264,0.509614433328739,0.574359034112991,0.636258107084998,0.46241703732242,0.40862723736926,0.502110484448197,0.48335600766776,0.504041488398956,0.537005864369076,0.566899660018811,0.582355398358107,0.567377767665701,0.552865682201698,0.525206285474132,0.674813951084682,0.559111414861899,0.558602800521736
460,cane,12m,OC,0.499638709862485,0.491055040528336,0.515301570840837,0.574560869062404,0.631951483417814,0.451860289857808,0.400346199468895,0.504942199834422,0.486242500955843,0.502073361822082,0.530624754302489,0.565054696482871,0.584090224989984,0.570916598466949,0.557113566734742,0.532991258497011,0.66922298895517,0.563061481646419,0.559723121498896
470,cane,12m,OC,0.497567784917818,0.491493678987766,0.521929758874941,0.574740902017738,0.627194759627806,0.443672405280507,0.393127964001597,0.507566418789335,0.490388002921172,0.499459304690489,0.524464920844237,0.563958980942163,0.586684520368622,0.574574693630978,0.560973376225691,0.541396842983697,0.663612315155636,0.566832455496586,0.562158343791342
480,cane,12m,OC,0.495412352518126,0.492711560580458,0.529973780038018,0.57524647351455,0.621877563885596,0.437481222975713,0.387588099559343,0.510409399114087,0.495385745309731,0.49640749288052,0.518961248528808,0.563924403430639,0.589126056698654,0.578036577408963,0.56433667145061,0.550143796462688,0.658274658550108,0.57084125665304,0.565376766960753
490,cane,12m,OC,0.493177856576811,0.493541197792464,0.537603858944995,0.576149726381352,0.616698208304735,0.432262296965827,0.383619471615318,0.51332730700226,0.50154708842971,0.49367884099222,0.514178743606799,0.564625313628172,0.589549674258299,0.580980067399583,0.566645476500196,0.559146600123021,0.65322532427093,0.575027763413532,0.568532497626967
500,cane,12m,OC,0.490827893135962,0.494155119261636,0.545875142382458,0.577631652371439,0.611843608650708,0.426895913575273,0.380944166677413,0.51671245190005,0.509038285039356,0.491881087740614,0.510468448200422,0.565524407233842,0.587996734539159,0.583663814307291,0.56829111349858,0.568643711287249,0.648460899020606,0.579686417789078,0.570892905812611
510,cane,12m,OC,0.488046448629051,0.494478215564804,0.55515821801382,0.579149455839803,0.607463804060137,0.421483325523111,0.379212309898032,0.520237474060673,0.517253319632294,0.490810963945327,0.508358438152607,0.566271685889316,0.584789910646824,0.585907314271086,0.569860755887261,0.578865212347361,0.644318672484141,0.584636553183162,0.572221075472243
520,cane,12m,OC,0.485152324337348,0.494457188881002,0.564380964877863,0.580782124549738,0.603653623698364,0.416220766084527,0.37918918846847,0.523468577309008,0.525098731367986,0.489931553602224,0.507881525620789,0.566788159177204,0.580586280429914,0.587508312482218,0.571568005642942,0.588816868719592,0.640846997834992,0.589453918532165,0.572870171041016
530,cane,12m,OC,0.483053813187298,0.494843919360395,0.572600063250255,0.582434981166476,0.600693289495497,0.412413702971923,0.380851643392749,0.52591331046177,0.531709180580551,0.490104414012953,0.507815010785248,0.566936666625111,0.575999865412115,0.588230350516911,0.573531965015605,0.597791938635133,0.638093054823877,0.593988592206185,0.573023064582494
540,cane,12m,OC,0.481765509707937,0.496606194846755,0.578965240386677,0.583790062408331,0.598486558690743,0.409791986595173,0.382358504922441,0.527409682678224,0.536243002923954,0.491645841761691,0.509142557518091,0.56675124257363,0.57197146440631,0.587729310923934,0.575511633400325,0.605543395876613,0.636043398401336,0.598583132117036,0.572383969776355
550,cane,12m,OC,0.480308351994241,0.499369421247583,0.582717524695466,0.584309141516207,0.59654818303044,0.407913905394343,0.384236903645484,0.528232913139746,0.539377969395125,0.494618949853517,0.512970442108814,0.566652519347651,0.568699274846562,0.586184982505464,0.577001656809371,0.612269323035694,0.633957868419048,0.602837121100398,0.571002292037495
560,cane,12m,OC,0.478989321627753,0.501985392617751,0.584519874015956,0.584407144154996,0.595166928356291,0.407025690385118,0.385640177949217,0.528218232576544,0.540611610977248,0.498339799792966,0.517934775280813,0.566548288260047,0.565718998546488,0.58344215299134,0.578329020126689,0.617849815507918,0.631152176478918,0.60613070190929,0.568720021370274
570,cane,12m,OC,0.478009446520548,0.504488258657476,0.585213191412302,0.584171913434182,0.594294355525866,0.407361716383381,0.387350033616954,0.527686833908181,0.540872328760791,0.502616761896106,0.523204226394101,0.566577625347545,0.562800889631276,0.579665014706975,0.579791992185077,0.622286149034353,0.627654633771522,0.608695301377019,0.565107587414681
580,cane,12m,OC,0.477569275129296,0.506774897099305,0.583550580795566,0.583476048564733,0.593527630566641,0.409045311153711,0.390000526719069,0.527146641023331,0.540163765937659,0.506573408597397,0.529159281040405,0.566797001759781,0.560003352664718,0.57501868771728,0.582212067631935,0.625225018162603,0.623616590073065,0.610180116802548,0.561021807357024
590,cane,12m,OC,0.477388667024322,0.509245752783357,0.579636998481086,0.582371260693173,0.593422746298624,0.412589538772687,0.394154514565976,0.526795238131447,0.538346769458103,0.51047722626478,0.535512703875246,0.567031935213921,0.556677144335575,0.569837077595015,0.584756893101436,0.626194949086713,0.618755228068348,0.610616153870185,0.55752028579182
600,cane,12m,OC,0.47645945642492,0.512255164638453,0.573841610255647,0.58079548744926,0.593953781372594,0.418048964229617,0.399543785076603,0.526762731101727,0.535411419649808,0.514248317301056,0.541621325849403,0.567162590238672,0.553430226577312,0.564407640560495,0.58679731698021,0.624953893741965,0.613397824365111,0.609786448584285,0.555698245277548
610,cane,12m,OC,0.474241658153737,0.515470451728151,0.567091279665007,0.578732853999585,0.594982069210613,0.423892880487191,0.405719153917512,0.52773993793019,0.532943034576885,0.517911605155862,0.547347513807109,0.567019421449116,0.550495265540597,0.558906136173752,0.588223571413115,0.621405072918597,0.607994990174497,0.608328292341238,0.555724849455665
620,cane,12m,OC,0.471095197512861,0.518632745077416,0.559914001383068,0.576729364056406,0.595950394112499,0.429900215716514,0.411429339059225,0.530142886640641,0.531358033528013,0.520956837071689,0.552208279314283,0.56648867095449,0.548381455230537,0.553435452907504,0.589338332046407,0.615833784085621,0.602714011126892,0.606513177598839,0.556073605265376
630,cane,12m,OC,0.467412241275252,0.521649490701229,0.551969118519462,0.574613818873742,0.596505472998896,0.436387127742336,0.416847140600785,0.533697455078945,0.529889698697345,0.523102456154129,0.556219280272928,0.565886531100058,0.546978924333962,0.548196455929027,0.590226449833756,0.60931438934486,0.597624801494321,0.603694752206092,0.555527552715753
640,cane,12m,OC,0.463745176973322,0.525349064174921,0.542951313855978,0.571650017516738,0.596621796356361,0.442802248972446,0.422414393674396,0.537699760536051,0.526923752030385,0.524286777914381,0.559296137008338,0.56487012564059,0.546598731462664,0.543548024458853,0.591475643279544,0.602767560737156,0.59304160847687,0.599884167520178,0.554191759224825
650,cane,12m,OC,0.460154713773925,0.529565060708251,0.532837246609441,0.568140782218509,0.596454472819597,0.449101664676659,0.428441646793129,0.542274557977556,0.523079659676085,0.525067164354088,0.562254479421041,0.563407843621015,0.546762667364878,0.539526556764829,0.592861573816046,0.595804091506875,0.589303105462741,0.595472483705585,0.552299695687277
660,cane,12m,OC,0.456967471863928,0.534307817043736,0.521925393075201,0.564487806770217,0.596096439976761,0.455029848623376,0.434494551753417,0.547263672745917,0.522068206509195,0.526108304201156,0.564705357822833,0.561370953369861,0.546487404463921,0.536121496621438,0.594271675875173,0.588113750659421,0.585551020109172,0.590778111552891,0.549471098909811
670,cane,12m,OC,0.454385802633529,0.539051018466819,0.510691864954486,0.560709698888237,0.595420360665775,0.46127424800433,0.440523706836123,0.551877269505722,0.522999736919217,0.526979342842046,0.566418816248898,0.559266465695689,0.545082377694554,0.533505602375551,0.595231580559869,0.58087243340457,0.581963632837938,0.586036898128219,0.545890269034255
680,cane,12m,OC,0.452324953869266,0.54321932158696,0.499432610038067,0.556623253017471,0.594309859146168,0.467818971341537,0.447171842219219,0.555666101597033,0.524332053555119,0.527399715021526,0.566304618437724,0.556940616762317,0.542561554182513,0.531738306788807,0.595820676927896,0.574996020045764,0.57860266862522,0.581571845053052,0.541436234916065
690,cane,12m,OC,0.450754632129102,0.547128054526604,0.488426103095178,0.553094197143333,0.593174045861822,0.473928677928706,0.454007848069298,0.55838696143653,0.525774573570225,0.527046745076244,0.56490184409884,0.555104358728553,0.539060751026493,0.53082686045171,0.595877465271493,0.570395572793423,0.575937644701215,0.576917388556244,0.53621738185012
700,cane,12m,OC,0.449808389345063,0.550634090882868,0.477728730790172,0.549677361155331,0.592663200626704,0.479201721157289,0.461330108986268,0.560264084673879,0.527529636838041,0.526053210857451,0.562402523226001,0.554303045988784,0.534766174858646,0.530501207752791,0.595688352206938,0.567169985184495,0.574111334987793,0.572272023367682,0.530727983697814
710,cane,12m,OC,0.450229820260875,0.553182322399271,0.467469116972583,0.546136423311961,0.593262310635142,0.484158091199162,0.469223733812765,0.561496811319995,0.52983942771776,0.524573360937351,0.559160230579667,0.554469768312586,0.529316202923376,0.530417719374158,0.595739741492923,0.564974400098367,0.574019657207864,0.567452881506769,0.52506969304505
720,cane,12m,OC,0.452432275283554,0.55471784416098,0.45781574390603,0.542242432548806,0.594994447308133,0.488534837179352,0.47779782762117,0.562417911945349,0.532665550090153,0.522594674955917,0.555680353383654,0.555076324907906,0.523174081778381,0.530519783125731,0.595537722772256,0.563719237333088,0.575683801249012,0.562275577208743,0.519170233104838
730,cane,12m,OC,0.455627531748929,0.555111790739207,0.448380484429898,0.537740103397854,0.597224961023873,0.492499897350901,0.487418376386705,0.562866232388028,0.53589432325978,0.520373629391083,0.552209571225855,0.555657576108181,0.516033658923604,0.531259496842639,0.59558989335169,0.562943794521123,0.578148488584187,0.55687329950853,0.513754600622067
740,cane,12m,OC,0.459232356611219,0.554505149464629,0.439176234729904,0.533208167698046,0.599720969131043,0.4965654441827,0.497318948527492,0.562165932950657,0.539042952213098,0.518657888485831,0.548907144749762,0.556280158167961,0.508111579182017,0.532079683816776,0.596512311174504,0.563065664219753,0.581133180575666,0.551389555235877,0.509012660519545
750,cane,12m,OC,0.463790013641632,0.553286811246098,0.431113280376987,0.528531988426309,0.602411616519844,0.500654322592343,0.508460640698674,0.559904008977045,0.542175302945273,0.517508568454525,0.546339267293137,0.556435234572218,0.500156256654147,0.532658513331011,0.598556382695338,0.564513709483985,0.584642526786374,0.546333491193808,0.505050679971805
760,cane,12m,OC,0.469495521955407,0.552066052770429,0.424346002018554,0.523812642369667,0.60477629573329,0.505380116682283,0.520151488876275,0.556184223797946,0.546339313097408,0.516927319968951,0.543994453158837,0.556658605672581,0.493892709081921,0.533204616208931,0.601674809384721,0.567071747937984,0.588439636510163,0.541774586027835,0.501773423599013
770,cane,12m,OC,0.476071432055299,0.550871017319694,0.42011235714207,0.520106043415564,0.606396783248987,0.511062870918814,0.531090139469176,0.551277236174141,0.551485377210223,0.516841874997851,0.541247777765839,0.557656540450626,0.488667262476554,0.533743376112436,0.605606076499711,0.569930691419934,0.591974478316048,0.537425979206117,0.498818041765852
780,cane,12m,OC,0.482822525279572,0.549643271479751,0.418471737959803,0.516602579029326,0.606202329426026,0.518167783229063,0.54053261482679,0.545236080684999,0.557158698265142,0.516601984791175,0.537910712378153,0.558959833381445,0.484132987667789,0.534187637341825,0.609637539368822,0.572113808804088,0.595581659972829,0.533179129497038,0.494989308152397
790,cane,12m,OC,0.489566502229721,0.548551855167792,0.418875953086323,0.513849489544288,0.604652353018396,0.526909308634451,0.547547754536267,0.538905106736993,0.563561455703023,0.515840205500699,0.533849888836729,0.559909889990334,0.479970366879712,0.534802401700535,0.612760931491485,0.572933665333327,0.599935466608263,0.52883159127082,0.490919633166787
800,cane,12m,OC,0.496019113629988,0.547348003013474,0.420922464987558,0.512566598761983,0.602104719071466,0.537304372916357,0.553063650980398,0.532898897971375,0.569747740728847,0.514577578432736,0.528858282706335,0.559998194269923,0.475498984891004,0.535788513785109,0.614678448976981,0.572655721844084,0.604448703548633,0.524080074388766,0.487444803085816
810,cane,12m,OC,0.502306714704332,0.54643291819282,0.424058495961043,0.512715924846339,0.598804412212725,0.548607326483944,0.557324354143904,0.527591641345062,0.575534245103917,0.512848444456612,0.525360392698538,0.559297785264054,0.470248479845386,0.537486257234105,0.615715212155159,0.573090730507013,0.609142176882472,0.518252734588997,0.484420087311529
820,cane,12m,OC,0.508651156282829,0.546368038154662,0.427852992935212,0.514242600769802,0.594959155795773,0.559788787358173,0.559991555073361,0.523386294975051,0.5814771187213,0.511224382677459,0.523399015029145,0.557874999228429,0.463451778647011,0.540236656515934,0.615869407780156,0.574496156653581,0.613378093101287,0.512157079491505,0.481872174497609
830,cane,12m,OC,0.51473661734266,0.547451615240661,0.431340302630816,0.517089434400926,0.590989612643391,0.57044495060909,0.560838114356775,0.520352373138534,0.587729875889615,0.50932667949997,0.522757804559555,0.556349298195166,0.456005846614742,0.543763168051024,0.615251781577596,0.576283943261214,0.616660079297634,0.505680132895731,0.479685048938009
840,cane,12m,OC,0.519717549718165,0.54950644062426,0.433441521671343,0.52091740728512,0.587292960172138,0.580467957651376,0.559198652136674,0.51819558790993,0.593451479872077,0.506857438849284,0.523742393480712,0.554766290761859,0.448549837331327,0.547390623412624,0.614301305397297,0.577638051818042,0.619045417380256,0.499424160792378,0.478230631518398
850,cane,12m,OC,0.523621198045015,0.551905045193072,0.435540944074726,0.525638990073228,0.583833367690363,0.590186137296749,0.556773966264617,0.516949305612854,0.598503810609199,0.50412545615734,0.526272443783246,0.552694196852437,0.441446921100542,0.550864325430194,0.61284556230135,0.578510308125752,0.62164601354344,0.493462127815417,0.47655572943584
860,cane,12m,OC,0.526357955384921,0.554487963897087,0.438534794960888,0.531148241872363,0.579766099033641,0.599234416037059,0.553591482647118,0.516309730284015,0.602483192262427,0.501990928868629,0.530065914475067,0.550216011879261,0.434894948274274,0.554116561507685,0.610822134791824,0.57934453243755,0.624939101311063,0.488037606681513,0.474338722507029
870,cane,12m,OC,0.528114902593886,0.557604781280324,0.44230758188401,0.537155205423844,0.574915845650843,0.607263252938135,0.550602168252111,0.515937480527534,0.60498613336378,0.499976511537979,0.534314032999927,0.547538675424136,0.429526165210253,0.557221979017086,0.607934504978838,0.580276787967463,0.628949246347011,0.483924971643985,0.472358028272732
880,cane,12m,OC,0.528996965416738,0.561432838549758,0.445990614628708,0.543322607398313,0.569376976144048,0.61332098991924,0.547960134544337,0.515695986732544,0.605866999459432,0.497682266368037,0.538463724989418,0.54513711174936,0.426099496561167,0.560001533969141,0.603991134468396,0.580405465906845,0.633046552581865,0.482574412221542,0.471189327794412
890,cane,12m,OC,0.528447343185413,0.566107652534785,0.450656851545616,0.549176234254812,0.563164376475255,0.617751742314606,0.547014170674545,0.51582664258204,0.60555203031405,0.495346859597078,0.542139974484258,0.543003456756678,0.424782581601221,0.562416621304419,0.599604063294241,0.580070512270017,0.636699316385922,0.482706859005515,0.470668097041676
900,cane,12m,OC,0.526605975719525,0.570783347492286,0.45674421416011,0.553801035496022,0.55693221373858,0.621077144157051,0.546639860081901,0.516770513446664,0.604078058544789,0.492721043004533,0.545591403417615,0.540866813889691,0.425128349392564,0.564616424612084,0.594444188985754,0.578901974519249,0.63976211961781,0.483343542854782,0.470217976553135
910,cane,12m,OC,0.524211691175079,0.573892562675373,0.464065819116621,0.557437913602491,0.550921957670106,0.622940258303364,0.545950483651223,0.51826317225085,0.601744073812902,0.489933260601278,0.548232328440396,0.538754422762076,0.426528404630176,0.566573680170691,0.588216718675681,0.577321663905519,0.642747953109057,0.483319332454953,0.470068314388586
920,cane,12m,OC,0.521536816623132,0.575237573657685,0.471600810592521,0.560019936174308,0.545089219461495,0.624262917318019,0.545158921942175,0.520046799145813,0.599068379870682,0.487186990339586,0.550325830537542,0.536814227162624,0.428695673346473,0.568033522484347,0.580469656168071,0.574358758812239,0.645241792606904,0.482760234468181,0.470024436099085
930,cane,12m,OC,0.518823963254489,0.57527905054587,0.479372802829502,0.561460041404024,0.540125000321222,0.625339780030035,0.544691535916281,0.522263866179865,0.59604128036554,0.485348940338071,0.552432533102845,0.535307808769414,0.431260179793957,0.568813098923455,0.571344127609301,0.57030438903668,0.647453446684507,0.482236009402448,0.470647985443801
940,cane,12m,OC,0.516224642464207,0.574127691141668,0.487256364407611,0.561954712580545,0.536319796827634,0.625968898057191,0.544626083405054,0.524416932295214,0.592148136212193,0.484446938524029,0.554389406104465,0.53409519371996,0.43505312097999,0.568969057577973,0.561532667037884,0.565388527027486,0.650039264181027,0.482356942686125,0.471545695392278
950,cane,12m,OC,0.514105801370302,0.572368287826284,0.494646509137043,0.561798155538117,0.533233722219836,0.625141560988763,0.545071050460184,0.526181094167401,0.587720391954067,0.484353363636455,0.556233180762473,0.533284872428287,0.441144249023255,0.568625984569091,0.551345314594103,0.559817516703765,0.65336890952577,0.483138523068466,0.472290863991401
960,cane,12m,OC,0.51153076185741,0.569613440494779,0.501586071888965,0.56105104642924,0.530194412793395,0.6232061131778,0.546217858938368,0.52802497917018,0.583335528819623,0.484707058494234,0.557155846897784,0.532973185421583,0.449438170167148,0.567727249859298,0.541594514093496,0.554028271396744,0.656906671352982,0.484433330234616,0.473138490877624
970,cane,12m,OC,0.508340566166923,0.566353471902625,0.507235844914757,0.559985197373404,0.527062346819902,0.620320116150661,0.548134812526425,0.529788565056325,0.579126147942429,0.485663070590152,0.557648645374218,0.533170612032738,0.459274450674403,0.56663675294258,0.533011816233783,0.547762263144567,0.660226242976239,0.485979500185094,0.474293890987975
980,cane,12m,OC,0.504791346882656,0.562649796390905,0.51140877368046,0.558959283534128,0.524098230375915,0.616732359701881,0.550435530285482,0.53137114204364,0.575115629600485,0.487349452289512,0.557849131659818,0.533946426966135,0.470501581658646,0.565901436014398,0.526662627362291,0.542189851453482,0.663289328690971,0.48748510097745,0.475444747634651
990,cane,12m,OC,0.501292245840154,0.559147905736694,0.514807240965319,0.55897056425371,0.521001349375162,0.61285797805423,0.552675149990738,0.532781558868757,0.572638659011614,0.490284175761749,0.55797867148248,0.535496193499809,0.482699444693167,0.565989559371225,0.522181869548464,0.537449236759413,0.666179425292721,0.488869085364323,0.476078509033449
-1000,grasp,12m,OC,0.549776848455914,0.547012114978787,0.542206093780857,0.459277718646738,0.545141198489487,0.607429971466355,0.552774271931884,0.528433595627941,0.499256453684468,0.50656348648582,0.571914688531906,0.554270679299506,0.567779903066454,0.525804214537448,0.596403621347337,0.533946090494537,0.58373941182168,0.509668831513789,0.573655823223979
-990,grasp,12m,OC,0.550585296625077,0.550641607566239,0.5457477597859,0.454054589676409,0.546662565433775,0.604017576265105,0.549938184609792,0.530057574725377,0.499347205349633,0.503725745309335,0.57149647763424,0.556007250382194,0.566909072468776,0.529218904213252,0.59949952732819,0.53527737121551,0.580961972185702,0.511889208653149,0.573666619360793
-980,grasp,12m,OC,0.551643164839305,0.554234781464062,0.547991737070536,0.451296103102002,0.547438044656272,0.599765697952597,0.547614664040562,0.53158673773238,0.499890378403328,0.502010277422945,0.57191039295787,0.557495145597172,0.566802089464405,0.533066741618503,0.602659068967191,0.535419872795564,0.578720633263179,0.515255649272715,0.573046019647863
-970,grasp,12m,OC,0.552509721531413,0.557461504252324,0.549259264522032,0.450987597918128,0.547904323853807,0.595606055043117,0.545477766911418,0.533277222556058,0.501503455213759,0.500660406532785,0.573349519741831,0.558705546011478,0.567804959471274,0.537118239471094,0.605697460417725,0.535474814597475,0.577544628124744,0.519471723890026,0.572273455202189
-960,grasp,12m,OC,0.553319025064132,0.559911598254065,0.549194455577392,0.452550726152035,0.547959081668007,0.591796767617573,0.543706153959334,0.535109630293143,0.504267857682403,0.498915604853734,0.575909638090696,0.559762217070767,0.570060276502742,0.541849966034498,0.608979808618225,0.535354538653855,0.577885880569027,0.523751433076833,0.571853506079205
-950,grasp,12m,OC,0.554797293543594,0.561570440412177,0.548243086937913,0.456547677687421,0.547760934015132,0.587794295374749,0.542586580775806,0.536824350763871,0.508278034532398,0.496904703387376,0.579800344896653,0.560921692439998,0.573580141521112,0.54633642394682,0.612685113435007,0.534246667189606,0.578985571753655,0.527629679472994,0.571542302064084
-940,grasp,12m,OC,0.557184211880463,0.562195438826565,0.547030730321858,0.461653656009621,0.547459886342257,0.58290995203646,0.542028220254613,0.538167052789815,0.512991459559142,0.495679617667043,0.584037240792497,0.562360151832397,0.578182752033012,0.550385327818475,0.61669080598745,0.532827142892138,0.580448335749157,0.530999580820843,0.571107169460656
-930,grasp,12m,OC,0.560321920301438,0.561776146763245,0.546280391453708,0.467099661099951,0.54648654279559,0.577539506653328,0.541864542681833,0.539403852918263,0.517940323428352,0.495784671475596,0.587928292976598,0.564186104958463,0.583090754947381,0.553792070521354,0.621361000873163,0.531054477578453,0.582406149792472,0.533829775637801,0.571066976247086
-920,grasp,12m,OC,0.563847826473426,0.560277197895108,0.547025754751231,0.473326176824479,0.54496949712079,0.571082192683301,0.544052297891069,0.540937326214072,0.522574773681279,0.497286427867087,0.591465909462821,0.566505984376049,0.58798521930477,0.55674302414796,0.62652433859128,0.528840607772463,0.584941939379358,0.53617085200223,0.571501741822009
-910,grasp,12m,OC,0.567703675122019,0.557694834086971,0.54942510544151,0.480664500794047,0.543204942578324,0.563965366776223,0.549361129161684,0.542998767303425,0.526561198001282,0.500032104706623,0.593698360317314,0.569059193747072,0.592685623492489,0.558868597661606,0.631523406972969,0.527098766952561,0.588410423471572,0.538293394568563,0.572387805090772
-900,grasp,12m,OC,0.572170340815825,0.554320778224722,0.552144402356098,0.488429674951577,0.541473964432182,0.557239493292471,0.556455537860297,0.545783593022569,0.529143273121478,0.503410215628055,0.594556688506297,0.571205541777128,0.596523513105731,0.560060725609187,0.635995782181515,0.525663104011117,0.592740790138032,0.540212800445409,0.573547110964081
-890,grasp,12m,OC,0.576651028463198,0.550886136600243,0.555552357210493,0.495906249120635,0.540147272434755,0.551878149141916,0.564639411273744,0.548945814896516,0.53104922615071,0.506744200246811,0.593376538929829,0.573034573037203,0.599091288444597,0.560348759685377,0.639960196987501,0.524117415089555,0.597873316324466,0.542016027690858,0.574653820757626
-880,grasp,12m,OC,0.580938027653221,0.547253949657266,0.558864860928863,0.503981084747619,0.539445103296253,0.547821908921681,0.574272397026741,0.552019100741219,0.53315913961581,0.509673746026121,0.591506890961243,0.574011219893466,0.600384572323963,0.55982768695764,0.643420347438144,0.521893994440618,0.603432323328449,0.543803870967168,0.575636452618914
-870,grasp,12m,OC,0.58547283152349,0.544015068600687,0.561445308124624,0.512765035304363,0.539517043167166,0.544955360703523,0.583872846198385,0.554374178777289,0.535745873202462,0.511851716444449,0.589586554473526,0.574415614174473,0.600974424843623,0.558104574222349,0.646161364775005,0.517499262629602,0.608985294091224,0.545344575742289,0.576617790991884
-860,grasp,12m,OC,0.590397936279362,0.541538223169829,0.563932525560221,0.520683877282767,0.54004717773174,0.543161731165613,0.593169222028568,0.555238129057349,0.538681766106054,0.513682146901163,0.586875789275331,0.574779570143397,0.601235984774762,0.555538300925449,0.647600980722778,0.511242351785967,0.614098851361507,0.546588540301562,0.577358424508885
-850,grasp,12m,OC,0.59546368916105,0.539931624642182,0.566490748039568,0.527581335022298,0.541130007956788,0.541721492994334,0.601763176860545,0.55432365628421,0.542033367377392,0.515441414335522,0.585012653312816,0.574841084818856,0.601768321179275,0.552927234082751,0.647445445179281,0.505428324193833,0.618184622774338,0.547455081424532,0.578020140275771
-840,grasp,12m,OC,0.600504495899347,0.539435689150252,0.569270289037233,0.533685315010494,0.542784861576653,0.540628840005707,0.6093564274382,0.552305148313964,0.54589811478314,0.516601745685979,0.582369942589735,0.574683174621417,0.602925735774738,0.550459651051637,0.645833084335362,0.500684698820848,0.621523550016536,0.548927934518391,0.577911211075501
-830,grasp,12m,OC,0.605155606615294,0.540150684894522,0.572577237439155,0.539291167035276,0.544952486479272,0.53959920433925,0.616678506053812,0.549961886700805,0.550579701889201,0.517445503200056,0.579511735430373,0.574360524394503,0.604970408652149,0.548294061573965,0.642706772902726,0.497049126120951,0.624355219890146,0.55096115301084,0.57756367327228
-820,grasp,12m,OC,0.609320260960171,0.541764160528394,0.575833924893989,0.544020543601542,0.547931440048585,0.539133142383961,0.624201405174955,0.548167254328058,0.556390185353217,0.517671364527056,0.576693643540113,0.574065813957325,0.607903652407987,0.546888818911359,0.638524012946028,0.494958970726999,0.626982899188717,0.553381971463012,0.577252314554505
-810,grasp,12m,OC,0.612682271652807,0.54347179596484,0.578162773210791,0.548370096602283,0.551348842063637,0.539491511369317,0.631061203698233,0.54704562597691,0.563958410950441,0.517098163819605,0.574011232720341,0.573955054403024,0.611041132991333,0.546984311633808,0.633326085160454,0.495215703864025,0.629330623816022,0.556362197102221,0.576886492848275
-800,grasp,12m,OC,0.614981396843907,0.544702311354389,0.579237567020548,0.552485334421367,0.55449039988954,0.540724527949251,0.63663038269263,0.546805170298419,0.573137755585109,0.515351271476761,0.571586454067685,0.573807048911257,0.613635425392846,0.548254861625855,0.627116025423308,0.496907371059578,0.6313116907142,0.560147668683451,0.576870728679283
-790,grasp,12m,OC,0.615894308241922,0.545731107872702,0.57848066748726,0.55585562153325,0.557078658856143,0.542635294904889,0.640727241619997,0.547381822811256,0.58335544924099,0.51375535890629,0.568693996593652,0.573804843515103,0.615774096890252,0.550361946046202,0.620149636719417,0.499585311998706,0.632611416029354,0.563501794871564,0.577329884902428
-780,grasp,12m,OC,0.616038555118299,0.546525122804085,0.575994891822501,0.559173411127232,0.559327918938318,0.544725084384458,0.642690976095364,0.548583985754237,0.593961076120538,0.513360503539316,0.565665999891656,0.573766721076107,0.617345998352789,0.553042105422827,0.61337274983697,0.503956245607465,0.633381459666468,0.566338347952905,0.5782677256695
-770,grasp,12m,OC,0.615052939283535,0.546517311927868,0.572141907015539,0.562242171940045,0.561017788900378,0.5470856843896,0.642823297400721,0.550188039696189,0.604504583017045,0.514242633208532,0.562240784515477,0.57361133991436,0.618118142069889,0.555853980400972,0.606991800465927,0.509014213030035,0.634096780878108,0.568464073096651,0.578840629669048
-760,grasp,12m,OC,0.612859121216345,0.54611979838072,0.567863763639614,0.564939928999117,0.562017328221429,0.549963848341453,0.64210065619821,0.552351391908141,0.615239844154987,0.515874346649263,0.558018434396007,0.57330142932501,0.617517594757649,0.558385285118292,0.600987213625644,0.51425354472523,0.635268260576375,0.569915161357813,0.579606848515663
-750,grasp,12m,OC,0.609267429583803,0.545384291216912,0.564694191383535,0.566915073506485,0.56264393456743,0.553412353818192,0.640746962445857,0.554736304629869,0.626240253435908,0.518020674429609,0.553038522523867,0.573121844955578,0.615936505133946,0.560629815417473,0.595629951838015,0.51902962029163,0.637325702648264,0.570770960828156,0.581369849345339
-740,grasp,12m,OC,0.604759114303921,0.544854459194862,0.562040045077006,0.56833363748774,0.562961228930929,0.556880601852033,0.639253956030796,0.55633083297276,0.63751013721899,0.520720282855104,0.547088151259203,0.572961879037511,0.614011673821895,0.562791927377659,0.591107626112493,0.522993203337546,0.6403690102735,0.570883760318224,0.584384766454974
-730,grasp,12m,OC,0.599410145635731,0.544734490406406,0.55958696541985,0.569911879747931,0.563225892127691,0.560660872010134,0.638258847648501,0.55742139586314,0.648931842680632,0.524025011591416,0.540629276686767,0.572572759046609,0.611862809962279,0.564749564176402,0.587546842492008,0.52683518174783,0.644238158557754,0.570090640452665,0.58827288285709
-720,grasp,12m,OC,0.593436386731517,0.545101491322239,0.557716836969353,0.57201671879525,0.563577490980741,0.564708310553413,0.637769220502395,0.558020946705771,0.660263821957191,0.527909129583208,0.534213773224089,0.572172743054059,0.609086050862348,0.566524405947009,0.585469134040784,0.531513759545543,0.64920523742269,0.568580360815509,0.592621553120238
-710,grasp,12m,OC,0.587223139294655,0.545342325348502,0.55709843669413,0.575709703706478,0.56383019373845,0.56886213771878,0.637701985960569,0.558265538749986,0.67090676478017,0.532354101583343,0.528598620598034,0.572073122608553,0.604753655526819,0.568086526443861,0.584483900440485,0.536565830823671,0.654643435694517,0.56651400227301,0.596655831852357
-700,grasp,12m,OC,0.580970753823396,0.545356673595065,0.557648141607602,0.580081431045128,0.564433321374091,0.573161186279079,0.638288775853556,0.557956009048379,0.680692896844938,0.536997629663097,0.52431714653634,0.572871921203592,0.599072431200821,0.569968563500683,0.584235583976633,0.541119817904887,0.659780106080781,0.564163639367509,0.600474205438357
-690,grasp,12m,OC,0.574614066793211,0.545269060945291,0.558262460682722,0.584563965111551,0.565711334484512,0.578125638345469,0.639148358301376,0.557270350699788,0.689054132357975,0.541441385300113,0.521989926596708,0.573987055689189,0.592847200777413,0.572130428337574,0.584438442610582,0.54464163500947,0.664314487830677,0.561855113872415,0.604818663007553
-680,grasp,12m,OC,0.568739254960185,0.545204262623868,0.55782855692048,0.588645208173807,0.567873907392498,0.58397219880159,0.640756415658672,0.556934899657363,0.695437150953561,0.54561789006636,0.521841418063273,0.574381656069226,0.586431309962947,0.574466861749911,0.584280926131996,0.546961429306502,0.668205909523009,0.559604897308319,0.610099557595642
-670,grasp,12m,OC,0.564006757915388,0.545287371489002,0.55556284032121,0.592092196783569,0.570798217695639,0.590293254780932,0.642960465004714,0.557057770227044,0.699807140358322,0.549416413601424,0.524215974425986,0.573991073612309,0.580026900080986,0.576913259283456,0.584075292000336,0.548940880795711,0.671734089994984,0.557461914011213,0.616177285687981
-660,grasp,12m,OC,0.560613355360725,0.545321400736382,0.551362300891103,0.594709842244122,0.574176474895023,0.59754923225074,0.645499097347601,0.556773070219151,0.702681495034004,0.55262730526625,0.528950603959338,0.573265726605926,0.573939878131383,0.579934377692399,0.583199515394454,0.55054290070067,0.674805883811828,0.554936418017294,0.622982737166184
-650,grasp,12m,OC,0.558105611211317,0.54523379636052,0.546219316001853,0.596111955898348,0.57748056451081,0.605207599881573,0.648045396220686,0.5554666599167,0.704341575583438,0.555078592802639,0.536305848562869,0.572711459040425,0.568549357429066,0.583100886028882,0.582136302491162,0.552111317179276,0.676807993687604,0.551711359233268,0.630627984919789
-640,grasp,12m,OC,0.556400480696302,0.545375724852355,0.540485975766547,0.595814707283881,0.580518602354082,0.61252776055373,0.650210335456424,0.552756640823325,0.704595397601582,0.55699558923652,0.546891725598692,0.572767212912065,0.56426819576934,0.586001366110712,0.580941834943077,0.553055765843071,0.677729387570173,0.547614775802112,0.639023318764357
-630,grasp,12m,OC,0.554873898404429,0.545695374415733,0.534436784805237,0.594460969645188,0.583145528920816,0.618943019835981,0.651615177880242,0.549252136847363,0.703829864428745,0.558550359652765,0.558579007606848,0.572811016828899,0.560404602295987,0.588245548855373,0.579301673371288,0.553373894316652,0.677267471025442,0.542520936322854,0.6469296495707
-620,grasp,12m,OC,0.553334913067284,0.546271954885951,0.528202183718214,0.591427456249482,0.585010540146045,0.624333331178789,0.651865766566701,0.545599876623639,0.702234672775437,0.559628455545018,0.571173660797903,0.572415195362438,0.557345427788733,0.589754774721339,0.577369400718077,0.554547153539066,0.675533875339109,0.536120514496006,0.654290325378236
-610,grasp,12m,OC,0.551747870545279,0.54693100026319,0.522879337459164,0.586738043313353,0.585529025641587,0.628178898855622,0.651455856578312,0.541727970379138,0.699864555598001,0.560307838023132,0.584055529311609,0.571859696746802,0.555520462870318,0.590408482036672,0.574910437493263,0.555617318353685,0.672630168648432,0.528693809707517,0.661339765999356
-600,grasp,12m,OC,0.550357823146858,0.547613363553942,0.518761424361389,0.580583780254465,0.58582374657294,0.63005374398137,0.651113295802125,0.537866056982845,0.696727772283238,0.56120499724571,0.596254196285135,0.571206958338477,0.554510274179567,0.59079886872914,0.571939078796292,0.55784879651897,0.668963173365414,0.520719968042749,0.66760764871332
-590,grasp,12m,OC,0.548920732490034,0.548211285305241,0.516512183583571,0.573872674740562,0.585790264013197,0.629955507384591,0.652098603858407,0.534586878612376,0.692417696689594,0.563013791634388,0.607045617022628,0.570335668723155,0.553733536609713,0.591090092888702,0.568769134374288,0.561843051468765,0.664437890303044,0.512375036845526,0.67227868613861
-580,grasp,12m,OC,0.54729477992506,0.548592141390467,0.516324338485243,0.567175457359999,0.585081300095064,0.627982847927595,0.655005179336822,0.531876233310666,0.686504332776666,0.565581021854497,0.616043997023924,0.569442155234402,0.552607304991788,0.591139873722843,0.56536180038119,0.564548174727722,0.659683516531578,0.504190950482801,0.675367157262266
-570,grasp,12m,OC,0.545865421831089,0.548177977154644,0.517840458830034,0.561396196013744,0.583657559180233,0.624256073291629,0.657408288694916,0.529435316730078,0.678899084305378,0.568783165178025,0.623540540587216,0.568716352378457,0.550569223557954,0.590996017939119,0.562247590789987,0.566359687997582,0.655046424761294,0.496059731522849,0.676541256926234
-560,grasp,12m,OC,0.545222792887466,0.547462674365943,0.520532553617944,0.557050310898076,0.581572080999054,0.619729745869056,0.658806305307424,0.527492416366841,0.670874577782395,0.573040422421033,0.629537050039718,0.568339242727791,0.547164267438415,0.591127689095775,0.55965566617871,0.567737691087861,0.649910089241241,0.48786094703766,0.675795920590872
-550,grasp,12m,OC,0.545733244557658,0.546629520907936,0.524402945282435,0.554604415803109,0.578905762866056,0.613874694694817,0.659096982680304,0.526197543054913,0.663165635440738,0.577827729038889,0.635451952985451,0.568786430152587,0.542156312547094,0.591444865178384,0.557119203859469,0.568504160820365,0.644656122353958,0.480748181534517,0.673745946099969
-540,grasp,12m,OC,0.546651865555408,0.545173097087021,0.528317494727663,0.553372000355631,0.575634512340246,0.606553927317112,0.658757197337333,0.525721403782455,0.655354080700689,0.582963023730378,0.641275731378173,0.569772501402447,0.535988206966951,0.591898510967667,0.554761718139704,0.569320521291611,0.639646791012964,0.474629912237709,0.670699360083544
-530,grasp,12m,OC,0.548200342829816,0.543573460925365,0.531422677431233,0.553134912265847,0.571786894830572,0.598872816197071,0.658428457221515,0.525828127126258,0.648099629182487,0.588116960647119,0.647045288413183,0.571348724263814,0.528951815703888,0.592263063563465,0.552665291133896,0.570320309382611,0.635608961023617,0.470027103261784,0.666481754433805
-520,grasp,12m,OC,0.54977923316733,0.541831889703198,0.533328840623272,0.552518935838249,0.567628203236663,0.590391974455504,0.658612169960402,0.526274824528763,0.641731362258595,0.592963350983792,0.652870647161661,0.573320581750823,0.52112924987157,0.592496400169117,0.551328810542587,0.572016201850531,0.631822046846784,0.466634118586438,0.661542951667481
-510,grasp,12m,OC,0.551690482298939,0.54057791739044,0.533956510532672,0.551545340917406,0.563202041037758,0.582366106509994,0.659008168954154,0.52622699653064,0.635892456024485,0.596999058105615,0.658754319984635,0.575672899963008,0.512829583013891,0.592594664695919,0.549926275066139,0.574326378379754,0.628770132783997,0.464466420687357,0.655667010234268
-500,grasp,12m,OC,0.553816436956559,0.539988617963084,0.533776931444229,0.550313451645722,0.558651537433596,0.574796241799257,0.660199874878662,0.525348505417987,0.630987627838888,0.599891457501236,0.664744904139287,0.578186409348422,0.504180607126977,0.592425729484998,0.548736152635134,0.57753579718596,0.626144556348494,0.463454443903082,0.64861382555478
-490,grasp,12m,OC,0.555782670263281,0.540048421208167,0.532912855485671,0.548260269824799,0.554103403112221,0.566879977531755,0.66183304691969,0.523826266944106,0.626714507941436,0.601034317354671,0.671139349349521,0.580687172550176,0.495293707824596,0.591948463621096,0.547898346702949,0.582381342159281,0.623634754388105,0.463314068414172,0.64010201848806
-480,grasp,12m,OC,0.557206467265733,0.540449878779474,0.532375388421229,0.546182083523265,0.549360516585175,0.558507495917208,0.663778040739202,0.522131843532574,0.62292597424549,0.600487349251673,0.677883170572552,0.583117644397692,0.486374231670153,0.59104932772503,0.547674280934897,0.588891215144852,0.621315830504954,0.463670121102995,0.630162103146526
-470,grasp,12m,OC,0.558233567209052,0.541424603338987,0.532202254642565,0.543708446624099,0.544382757526502,0.550239399300589,0.665819212783327,0.521181992567519,0.618648109633775,0.598652064550759,0.684718179570838,0.585322664764761,0.478155856559181,0.589798912217853,0.548000056582027,0.596528745540155,0.61904280264858,0.464912178985904,0.618647032848406
-460,grasp,12m,OC,0.558997793296834,0.542587109071065,0.532790057034254,0.540640568064692,0.539445962999684,0.542941609166875,0.667657727021435,0.520991626347731,0.613904950432374,0.595617793624677,0.691000563129603,0.587255541511252,0.471271548285431,0.588129272485917,0.548312731575851,0.604664879129224,0.616659378012703,0.467917745003474,0.605646437002113
-450,grasp,12m,OC,0.559724417794199,0.543551455111204,0.534971198246935,0.537263733547925,0.535190736744062,0.537216564379683,0.669416851585372,0.521656700184996,0.609154486843619,0.591772689234976,0.696236395434071,0.588690607280503,0.466297280645806,0.585909722006629,0.548807203982751,0.612680736564406,0.613544294730185,0.471761597168823,0.591774014998784
-440,grasp,12m,OC,0.560909023795836,0.544686082779126,0.53867979787239,0.532856605942329,0.531957768098567,0.532986079236723,0.671204327927719,0.5233964526579,0.604337755605107,0.587525398537979,0.699326547845849,0.589401275905896,0.463124600383615,0.582301812653531,0.549272431253372,0.619606165054613,0.609489073203447,0.475824525634387,0.577759760543738
-430,grasp,12m,OC,0.562911989821179,0.545660685132694,0.543306991120322,0.5276665871042,0.529647066304323,0.530428551362794,0.673187923826707,0.525409435402664,0.599140355236134,0.582671150257183,0.70037832170225,0.589385525154374,0.461872503115935,0.577589840444978,0.549745026001959,0.625374505551855,0.604423516003401,0.479335882532904,0.563274072372933
-420,grasp,12m,OC,0.565469222659032,0.547338191701624,0.547434959245765,0.521708899910987,0.528123710037796,0.528923019157912,0.675318321947866,0.527722115668341,0.593299262324342,0.577185900869194,0.698866769325746,0.589280865870927,0.46310847663747,0.57228870537231,0.550607757818926,0.62901929444236,0.598486922820173,0.482407817132882,0.54907436027056
-410,grasp,12m,OC,0.568143263572355,0.550033491541048,0.551561008018679,0.515071635947269,0.527140783504604,0.52713186480727,0.677552509832061,0.53000877081029,0.587254499477094,0.571298461871678,0.694331296995321,0.589348576467281,0.466066187374911,0.566732089621244,0.552374290972911,0.630631751489306,0.592095421414066,0.48498259563255,0.53537157057813
-400,grasp,12m,OC,0.571142857479849,0.553150417439313,0.556241318513517,0.508050101971128,0.526448630356576,0.524994873264909,0.679762349910626,0.531747822030129,0.580989639436846,0.565116988698702,0.687573003404386,0.589593513400789,0.469850184916596,0.561102784528366,0.554888240434413,0.629752138131241,0.585295508455486,0.487368464533767,0.523252378116798
-390,grasp,12m,OC,0.574276821901254,0.556521060935449,0.560904686608703,0.500834429698316,0.525803516688335,0.522904359396783,0.681299018154225,0.533584404162952,0.574356264200718,0.559105705111197,0.67938263372076,0.589708287635376,0.473717312505293,0.555321092606264,0.557888528850433,0.627236311577036,0.578407992996106,0.490194727545447,0.513146208762442
-380,grasp,12m,OC,0.577409761820045,0.559580334075127,0.566185902932077,0.493577061933405,0.525591407357731,0.522087204754179,0.681300168533996,0.534791084916466,0.567400004080958,0.553292973108887,0.670546702090926,0.589657931320486,0.477103483416981,0.549294701385594,0.561531589156687,0.624746262745073,0.57198599624742,0.494130537527854,0.505372304213798
-370,grasp,12m,OC,0.579888835827099,0.562179193726096,0.572440423353655,0.486648267511529,0.525805969522558,0.522246139154215,0.68074539736348,0.535227053103468,0.561279505650451,0.547827766646278,0.662006165234026,0.589015477868112,0.480100586791248,0.543142982748747,0.565094472366728,0.622602728897017,0.566309495469311,0.498558100144658,0.500430368604619
-360,grasp,12m,OC,0.58137109380802,0.563758861015734,0.578706177969103,0.478544104987132,0.52594829717819,0.523439914956269,0.67960647826627,0.535081644049214,0.555945350199939,0.54275158398879,0.654632551134007,0.587466095756027,0.48260901284144,0.536718549707376,0.568552087540242,0.620545463552662,0.561209507957825,0.503343369509198,0.49710185342527
-350,grasp,12m,OC,0.581707077245491,0.563920734596549,0.583804501766346,0.470026624697509,0.525729401826023,0.526503586207212,0.678235502941076,0.534126098131095,0.55110947851252,0.537852728822916,0.648216459476894,0.58479469831208,0.484863364269134,0.530103040033471,0.571645072964162,0.618880103687097,0.556725066982788,0.507928858484721,0.493937385334479
-340,grasp,12m,OC,0.581463583553321,0.562895530863802,0.588623257458627,0.461300978831917,0.524978568453772,0.530801535195776,0.6766646524818,0.532059542413137,0.546491373763226,0.532971589458266,0.642955987720255,0.58144047248509,0.487201759288729,0.523703348996741,0.574285801585048,0.617857552436437,0.552740676642508,0.512021699116301,0.490697257634919
-330,grasp,12m,OC,0.580785933897098,0.56137651561694,0.593304891079237,0.453627851299484,0.523825814625425,0.535562000508891,0.674676716589462,0.529036635246006,0.542498264753969,0.528746523168073,0.6382117420866,0.577514823302966,0.48943179770653,0.51774514121418,0.576116577158231,0.617929000611826,0.549166242384982,0.515591658992894,0.487735313059799
-320,grasp,12m,OC,0.579805149918233,0.559670110457309,0.597560413573542,0.448495353630999,0.522279089825986,0.539812003839134,0.672098300738336,0.526159802902283,0.539210483774315,0.52521727758358,0.633674163526613,0.573339849543471,0.491051205974797,0.511828230969372,0.576843464879905,0.618962255375726,0.546088561987607,0.518507676915369,0.485172701844861
-310,grasp,12m,OC,0.577970843523392,0.558630519173709,0.600914549709576,0.445876796266454,0.520606054569607,0.543615876500594,0.668557658852021,0.524109060751507,0.536298213528217,0.521767263432559,0.629323044843544,0.569192266869854,0.49166766789151,0.505929768884876,0.576721312765075,0.620951082432066,0.543644183270537,0.520824263109627,0.482871576695693
-300,grasp,12m,OC,0.575829682293657,0.557999154062389,0.603850976712413,0.445639879302349,0.518955971091061,0.546435675795954,0.664477021135618,0.522947052171056,0.533647667432955,0.518055803566874,0.624153268296851,0.565571707751623,0.490911144754212,0.500468889422996,0.576225824364755,0.623311489958973,0.541383309313264,0.522334476889332,0.480478432175546
-290,grasp,12m,OC,0.573848563838236,0.557785144420764,0.60522332977536,0.447068634584153,0.517695087294597,0.54811323731726,0.660511961567821,0.522841007223883,0.531196186733973,0.513746782272332,0.618406458614918,0.563184988466947,0.489283657804873,0.495916134301156,0.575105099683669,0.626538259785954,0.538630477324672,0.522811556962212,0.477581476208616
-280,grasp,12m,OC,0.572617424629262,0.558025679694242,0.605654550812444,0.4498242443119,0.516943719829665,0.548539618317663,0.657054568274027,0.524303278974909,0.528363387673437,0.509596361819383,0.613373099460256,0.5623369492956,0.487611999641616,0.492267487293753,0.572938910503617,0.630068919353807,0.535854299807925,0.522424212832667,0.473866669175977
-270,grasp,12m,OC,0.571505579163806,0.558569665456228,0.60542244316682,0.452978035277771,0.517100196090555,0.548365068427446,0.654295328911853,0.527252065575646,0.524552947037319,0.50602977938411,0.609252998251841,0.562997113984778,0.485730617722342,0.489537395904206,0.57032339484955,0.633865645209875,0.532774542041244,0.521160235586605,0.469505471937354
-260,grasp,12m,OC,0.570466707315174,0.558939359646941,0.603725216182575,0.456791050932419,0.518108013479815,0.547620745520876,0.652239427231664,0.530916891632,0.519738631762692,0.503248454697113,0.605438086669272,0.564752656861351,0.484901128950888,0.487954787050712,0.567367833347617,0.638309418297559,0.529498401869156,0.519525487052535,0.465253241804357
-250,grasp,12m,OC,0.569535626227062,0.558920913104314,0.601299543881428,0.460701279968863,0.519702733954695,0.546673267551311,0.65050341160534,0.534359163967647,0.514506766165068,0.501687757933934,0.601596945000061,0.567015835906066,0.484749933463146,0.487604537465225,0.564544565605963,0.64152524575683,0.526265333594596,0.518137882417539,0.461513540129302
-240,grasp,12m,OC,0.568523709656213,0.558240723554911,0.598284727618373,0.464857224077741,0.52178166860337,0.545297262002529,0.648310992582844,0.537972752281198,0.508563472133469,0.501376068896778,0.597778391214642,0.569715822263846,0.485275882266844,0.487972115446563,0.561317502254316,0.643529486637628,0.522597039249799,0.517220082041674,0.458053700608989
-230,grasp,12m,OC,0.56765265430651,0.556724817979288,0.595531663686052,0.468759464609509,0.524567085246149,0.542897775124799,0.645578444408045,0.542596035336468,0.501851398991121,0.501433477371889,0.596944443054611,0.572845076414967,0.485206796518601,0.488883351863489,0.557826165509276,0.644210355697341,0.519093344362237,0.517009358225212,0.455692654014421
-220,grasp,12m,OC,0.567162938797335,0.554463020949845,0.593157427409195,0.471678773964021,0.527950701958373,0.538765162296182,0.642366449731259,0.548526694199759,0.494323391499345,0.501258936687152,0.598531266622528,0.576152143104649,0.48386472407825,0.490059289827234,0.554398703331281,0.643105388665468,0.515931813112784,0.517458435819935,0.454116867932829
-210,grasp,12m,OC,0.567186477388564,0.552045682805378,0.591195912955431,0.474200631297532,0.532104819162806,0.533566270867803,0.639563139769908,0.555650482045521,0.485797665963264,0.50173295253974,0.602427155971684,0.579592560115498,0.481288868013846,0.491722887996162,0.551183915371607,0.641266564443615,0.512818214635571,0.518035777404374,0.452658920715624
-200,grasp,12m,OC,0.567151173392155,0.549787380586241,0.590005158164074,0.476537880143312,0.537135019882961,0.527513597822668,0.637099152193438,0.563658382562468,0.476623966595564,0.503947136549446,0.607083315456093,0.582815446672407,0.477852650461829,0.493356023181577,0.548248512479815,0.639277489891392,0.509440084050806,0.518626879833039,0.452058903877675
-190,grasp,12m,OC,0.566788671282544,0.547731818864033,0.589408653806064,0.47963037278436,0.542967761674935,0.521737344467622,0.634857402388028,0.57203482970182,0.467751216429208,0.508327668951061,0.611099586449394,0.585921356550462,0.473439562225234,0.495025492960465,0.545327284705479,0.637313196496982,0.505918466437815,0.519352891509005,0.452269078802742
-180,grasp,12m,OC,0.565801280267707,0.545776938578378,0.589204759816281,0.482719601554821,0.549207178907741,0.516811661633304,0.631628591574937,0.580527004360758,0.459754512844437,0.514341679627797,0.614727858737328,0.588552966047865,0.469121600879655,0.4965336475545,0.542452876357308,0.635440154486373,0.502569470142183,0.519955930208433,0.453748905845353
-170,grasp,12m,OC,0.563641401121641,0.543671697235946,0.589596663985824,0.485671912747666,0.555662724904633,0.512574205074143,0.627181007553479,0.589052684403114,0.452906184940157,0.522522678954475,0.618498494127072,0.59067909602979,0.465761381624014,0.497902064735547,0.538713962375861,0.633670839599194,0.500042810002977,0.520690614522889,0.456535010167639
-160,grasp,12m,OC,0.560557146616621,0.541748245646769,0.590137566266734,0.488786025736525,0.561817342605761,0.508149714842044,0.621665562927272,0.597253677538471,0.447459566143881,0.532309253707083,0.621700849498069,0.592650426362624,0.46396869428473,0.499195181779834,0.53429867768504,0.632266711017442,0.499063765991822,0.522042196267855,0.46047157750373
-150,grasp,12m,OC,0.556949467643587,0.540323781141942,0.589578257710712,0.491761573745832,0.567734615067754,0.501842398833777,0.615505272178669,0.605895928749722,0.443831570294117,0.542848806442817,0.624941296942867,0.594520916103415,0.462906118962549,0.50047613154653,0.529374959439267,0.63204287784052,0.499700443595345,0.523007896880079,0.465711493225184
-140,grasp,12m,OC,0.552981934289951,0.539728228500142,0.588184403841333,0.493870187286464,0.573141379207271,0.493834189621529,0.610330816376999,0.614796345470981,0.441959984825014,0.553812389420934,0.628312168481597,0.596029819025233,0.46252041535971,0.501953780956275,0.523933313214008,0.632330782818921,0.502335717016179,0.523455591671835,0.472218190301224
-130,grasp,12m,OC,0.548727300786151,0.540021781351571,0.586181946015191,0.495105533076669,0.577489758544071,0.485037305117404,0.606330351581392,0.624001101716847,0.442007871600072,0.565037033055077,0.631536940025748,0.596709681165918,0.462836370407741,0.503413206538705,0.518377278524928,0.632453736167773,0.506650360789541,0.523659239402825,0.479878701462403
-120,grasp,12m,OC,0.544038218291403,0.540487947524791,0.58401187658913,0.495181293726384,0.580423624247865,0.476265028790165,0.603765749609149,0.633006458639374,0.444140454186132,0.576064633287756,0.634302486043442,0.596469557015372,0.463944025176548,0.504717008414575,0.512775517788299,0.632779821283623,0.512506312914469,0.524035226007115,0.487786532432719
-110,grasp,12m,OC,0.539511975611452,0.540801687621108,0.581092204970362,0.494037244851131,0.582165878445959,0.46892361363359,0.603799970230868,0.641496297728079,0.446624389969385,0.586370704428066,0.637287121300168,0.595687101360755,0.46523464446727,0.506083754082662,0.507909733588726,0.633559170995,0.518898220323629,0.524664026289537,0.495320954269743
-100,grasp,12m,OC,0.536266935044144,0.540615524906343,0.577511948546698,0.491980093308231,0.58328409595744,0.462664812009164,0.605124665134135,0.648988338127433,0.449207720154968,0.595823181427959,0.640894077803693,0.594547581811114,0.466515916774756,0.507397869809908,0.503987229153929,0.634675127106281,0.525486343150422,0.525388663160294,0.502354398962138
-90,grasp,12m,OC,0.534181947178522,0.540039901158697,0.574169409335344,0.488570991432676,0.584115915591422,0.457549032406108,0.606719508082246,0.655098373956595,0.451515077472822,0.604266210371557,0.644922117298346,0.592637871445928,0.468088534919981,0.508433591794658,0.501316101882255,0.637459994462729,0.530824790163423,0.526288392119157,0.508910531742256
-80,grasp,12m,OC,0.533012004947948,0.538790233485623,0.571532075640815,0.483626352385677,0.584698701866306,0.453625150835791,0.609145715888779,0.659684204460467,0.453479503571552,0.611672181641156,0.650040689296775,0.590304260432125,0.47016353770187,0.508755726964905,0.500199046056978,0.641322670486984,0.5350988935724,0.5274392084954,0.514886789478
-70,grasp,12m,OC,0.532564541675122,0.536936504593208,0.570763725423493,0.477578344935319,0.584891274470601,0.45022753117868,0.611694960150593,0.662705080677401,0.455622949883867,0.617831425221838,0.655880218487808,0.587712260239649,0.472508864056699,0.508548550401898,0.500252115135342,0.645401955417736,0.538942773610562,0.528854535964754,0.52025771891164
-60,grasp,12m,OC,0.532073733123561,0.534762368773531,0.573098405762444,0.471830106963953,0.584710868593079,0.448474156655859,0.613867601440108,0.665005063272,0.458330105028381,0.622540177634121,0.661676488602867,0.585081459197284,0.474926850452866,0.507653599076038,0.501317791748476,0.649528016786376,0.542603239076586,0.531212536592416,0.525894881772219
-50,grasp,12m,OC,0.531295027293529,0.531929488010754,0.577364471172257,0.465987904907049,0.584133194271828,0.447897116489938,0.61515362326097,0.6669792761677,0.461920101634284,0.626452816452376,0.666253909003447,0.582765441319981,0.477941877572581,0.506362719387019,0.50357250254748,0.653681266190215,0.545741300798737,0.534514892465314,0.532264842457436
-40,grasp,12m,OC,0.530358554115808,0.528979128578103,0.582652605283466,0.460388163209146,0.583103934725688,0.448976842983423,0.615522383106735,0.668819365522681,0.466863921671279,0.629407027828279,0.670122946368163,0.580696247957054,0.481933774700629,0.504605691969945,0.506595705854744,0.657801155810071,0.547947496396928,0.537960202882439,0.53896656913169
-30,grasp,12m,OC,0.529048492784012,0.526398497090984,0.588374327964809,0.454572597361717,0.581648333800018,0.451771754515883,0.613497099438164,0.670257524229521,0.473669591431363,0.631025718185701,0.673016884871067,0.578688773355404,0.486938002530499,0.503030762704732,0.510376087774843,0.661870856700381,0.549448071394769,0.540591135777921,0.545606189295076
-20,grasp,12m,OC,0.527881530795893,0.524007185583292,0.59394564803132,0.449551480255869,0.580106857002149,0.456224854279093,0.608807646453584,0.670626144521486,0.481344906994094,0.631081293957571,0.675721791987618,0.576819667670754,0.492581955181993,0.502151804277129,0.514883624384434,0.66596563084189,0.550301239933135,0.542573378857832,0.55202699479781
-10,grasp,12m,OC,0.526717709762939,0.522361020730423,0.598755997048982,0.445586215525372,0.578755530759708,0.46156843938287,0.602512627286298,0.670271292500935,0.48840091350921,0.629785519659011,0.67762389196695,0.575215710516397,0.498640497995806,0.502100733346647,0.519461414207685,0.670141594417155,0.550836248012224,0.544214317057271,0.558112952815187
0,grasp,12m,OC,0.525293049586867,0.521651086678032,0.602312893068508,0.443696641530561,0.577112586717939,0.467500306711118,0.59625482674542,0.669403309141494,0.494161808530991,0.627630963252606,0.677373973442312,0.574033217810569,0.504703983739467,0.502792919035961,0.523763302567465,0.674209331786398,0.551419085580891,0.545563651655824,0.564000764178393
10,grasp,12m,OC,0.523311416351624,0.521665852197822,0.605101763337551,0.444662355820417,0.574786110551186,0.47438576354209,0.590793434640782,0.667619994716775,0.499663880421223,0.624994432133932,0.674413318854599,0.573404165480061,0.510222431736555,0.504434078739854,0.528183340486038,0.678115591346897,0.55304971382341,0.546482368594677,0.569372759258381
20,grasp,12m,OC,0.520350058407803,0.52231925931453,0.607505979261961,0.446616790318096,0.571400661815862,0.48197752435825,0.586436900537449,0.664715156901291,0.50467590999687,0.621960859190914,0.668482631589292,0.573419561909692,0.514524713650931,0.506800397631312,0.532529156905989,0.682071163817702,0.555155655410536,0.546875608000292,0.573820564081631
30,grasp,12m,OC,0.516218442271808,0.523128122410416,0.609631584810126,0.448710579618544,0.567192222109458,0.489128731700705,0.583307956026831,0.660572427011635,0.509465088159265,0.618752392538581,0.659376789670203,0.574063294377171,0.517846524363117,0.509800044088192,0.536337691101242,0.686125811045079,0.558076596923941,0.546836985371714,0.577241784455974
40,grasp,12m,OC,0.511283245580093,0.523613135769452,0.611532722119846,0.450484113132115,0.562434560268448,0.495609757176955,0.580937220175736,0.65528749178032,0.513989901399723,0.615104637819627,0.647976160442549,0.575506797498033,0.520066117594556,0.513811219047142,0.539560394745428,0.69073016957941,0.560663212745979,0.546430728979708,0.579650781397872
50,grasp,12m,OC,0.506714660297024,0.523841898778556,0.613033484726359,0.451693614802867,0.557703656320832,0.500766625114325,0.578992059992674,0.648876932580891,0.518315266839509,0.611312927066889,0.635619231459929,0.577459621634814,0.521279936225038,0.518303889410559,0.542474568131773,0.695477256306224,0.562339769792033,0.545348099876445,0.580538626930272
60,grasp,12m,OC,0.5033594489962,0.524116213644588,0.613854843879686,0.451878304293067,0.553070708548985,0.504718360166517,0.57709701762379,0.642826789361894,0.522725087033645,0.60749231055554,0.622889652474643,0.579622867360243,0.52176246713873,0.522710428887263,0.544649734707448,0.70004744722215,0.563397862062334,0.543499868210292,0.580610538390594
70,grasp,12m,OC,0.501571969474811,0.5244916155522,0.614996916480242,0.450532392237815,0.548835461604372,0.50773017834146,0.574894171462697,0.638440971996682,0.526758303069417,0.603994052835508,0.609876061339472,0.58177478475722,0.522032765505111,0.526464830660434,0.54646675325359,0.703919797920172,0.563735609964139,0.540914895407297,0.580431284890863
80,grasp,12m,OC,0.500745457047797,0.525214435089495,0.61680167150078,0.449190042630782,0.5453172037498,0.509789582740669,0.572248836971097,0.635167120855877,0.530860392417915,0.600841855518689,0.597102277947173,0.583720614108875,0.522339284224412,0.529675959254505,0.548158179856956,0.706128758774376,0.562760425602495,0.537832027512661,0.580277543829134
90,grasp,12m,OC,0.500182675910926,0.526472023523692,0.61844719947792,0.447801850464347,0.54269360658568,0.51067150318517,0.569103815729648,0.632339768356847,0.535486519769964,0.597436997014699,0.585290904611431,0.585375345806566,0.522718441679133,0.532363273267518,0.549551931050873,0.706540125459959,0.560161072746043,0.534407458834154,0.579520565964628
100,grasp,12m,OC,0.499787937641781,0.528531789234957,0.619791593955311,0.446897096622426,0.541099177257157,0.510256713378633,0.566133141698493,0.629282992574968,0.540863237744756,0.593965248982965,0.573412149771655,0.586655542304793,0.522919137738351,0.534473590967406,0.550700731430176,0.704809977128533,0.555955091624499,0.530447233913328,0.578541497161452
110,grasp,12m,OC,0.499466183135203,0.530551786216451,0.621158204846154,0.447223888459775,0.540873381919646,0.509115444687787,0.563429570442776,0.626236282748807,0.546448482498944,0.589857511726169,0.561233561940253,0.587176289404062,0.523306439414179,0.535704567139352,0.552096989065573,0.701300689504225,0.550547780884578,0.526341312639495,0.57758919313942
120,grasp,12m,OC,0.49979793972991,0.532486436229053,0.622535744691045,0.448857726888109,0.541696429789622,0.507069607562675,0.561383556347442,0.623480656525642,0.552071500442432,0.584630386923247,0.548548988450204,0.58690718764238,0.523635663949563,0.53582456809328,0.553712032754001,0.6961955019046,0.544312416234861,0.522342935062055,0.577055835305291
130,grasp,12m,OC,0.500507347816369,0.535142987313562,0.624313297765175,0.451074050209855,0.542952923012729,0.504331411045135,0.55986457239406,0.621019222497325,0.557374130486619,0.57906444752216,0.535142099833772,0.585989707986621,0.523728239318752,0.535085552744747,0.555578705461557,0.690141212115852,0.537280355989409,0.518548278409885,0.5768331453615
140,grasp,12m,OC,0.501126106834778,0.537985819991582,0.626736255468633,0.453757034951949,0.544720468911481,0.500775765697439,0.558083560098849,0.618412065616484,0.562507616113124,0.573400195002952,0.521969654750768,0.584832038791908,0.523763431451174,0.533098630672812,0.557972065480204,0.682155045510932,0.53034583315485,0.5152227470786,0.576355462978105
150,grasp,12m,OC,0.501022995309229,0.540856770535626,0.630260843722614,0.456570337192666,0.546918811565443,0.496287160595023,0.55588978113763,0.615843185073876,0.567502549872611,0.567800069030906,0.509562721558662,0.583126753795282,0.523158958755494,0.529743272597127,0.560673577743331,0.672013425518934,0.524480316397313,0.512205973360486,0.575699375445607
160,grasp,12m,OC,0.499719235415075,0.544143278493929,0.634752071429027,0.458871617465196,0.549178376013173,0.49157382889684,0.552817966590666,0.614291475866512,0.572280771545341,0.56281870967781,0.498587264097756,0.580644244293059,0.522832667885851,0.525028405822045,0.56374269851808,0.660006288756135,0.520427093344462,0.508978171952689,0.574487283288307
170,grasp,12m,OC,0.49736453163412,0.547757912801997,0.63929881267916,0.46074553966272,0.551770815923326,0.487019459312458,0.549961063832777,0.613602044523358,0.576329570666748,0.558514585629634,0.489858565078274,0.577781552840796,0.522943173284703,0.519301175331888,0.567397412735932,0.646394407218253,0.518984045305091,0.505913865296226,0.572797742032369
180,grasp,12m,OC,0.494442892691931,0.551912050086452,0.642688472620483,0.462664065389982,0.554823186603571,0.482977010609452,0.54735794262753,0.613706706338175,0.579483651140033,0.555232233736181,0.482849057710431,0.574945452822914,0.52327294225688,0.513325851973747,0.571618634962592,0.631731894207962,0.521244209915305,0.503255809077769,0.570666486186189
190,grasp,12m,OC,0.491604488171574,0.556656794729935,0.644468059061103,0.465291240374457,0.558115937355637,0.479594879292521,0.544460491950736,0.614046581911277,0.581472357519419,0.552917773041784,0.476650341923024,0.572232801994736,0.523133391949664,0.507609661208307,0.576017924898499,0.616965156439067,0.525804871960235,0.5013274708293,0.567997744049615
200,grasp,12m,OC,0.489589949097378,0.561445339496334,0.644550596310839,0.467645675218132,0.561618810423418,0.478064263424973,0.541363323080545,0.614510928038517,0.582855727053162,0.551535267537907,0.470193294641727,0.570110285272964,0.522782700905094,0.502270875454185,0.580667921946265,0.601966610021005,0.532029421275083,0.500220996876882,0.564813302127055
210,grasp,12m,OC,0.488303752573225,0.565745477749009,0.642253758892458,0.468982217580937,0.565427739075967,0.478778677832096,0.538525518460872,0.614675550613879,0.583791627444219,0.550998356316761,0.464282292454224,0.568866717491594,0.521686559686767,0.497387078219755,0.584886977642488,0.587874463297448,0.539077801073269,0.499752124191269,0.561355655308826
220,grasp,12m,OC,0.487224396625061,0.569704969948569,0.637128066914743,0.469461801179989,0.569714357664857,0.480681292652455,0.535846884617893,0.613771877713965,0.584413970331359,0.551073220877747,0.459232102077907,0.568373518965774,0.519473679142545,0.493074915484976,0.58874401371673,0.574149385755831,0.54652338283547,0.499682862950747,0.557493899460814
230,grasp,12m,OC,0.486859056151971,0.573212906964011,0.630648966755801,0.468971823058595,0.573909465162543,0.48295203469194,0.533100355814816,0.61187578554331,0.584420028445638,0.551760778962249,0.454796308417553,0.568246665011706,0.516051172506362,0.489262122892987,0.591921656225904,0.560811663332419,0.553017501932136,0.500020431079525,0.553211019030074
240,grasp,12m,OC,0.48763972155409,0.576383116801629,0.623021388586837,0.467560772389058,0.577491725078841,0.48567838007496,0.529644925556535,0.609549849683483,0.583865740395901,0.551956295147636,0.450526111791775,0.568403125556024,0.51157562143065,0.485840398150684,0.594180231353397,0.548013336973067,0.557988434559457,0.500898840284745,0.548657611722636
250,grasp,12m,OC,0.490198581522995,0.579404954929606,0.615110120934255,0.465810702000344,0.580736982821177,0.488802228582847,0.525582373116091,0.607178823829442,0.583321603399224,0.55115983087711,0.446441014743067,0.568792812517078,0.506419242237508,0.482940094536147,0.595620770304221,0.536811836528713,0.562212287350116,0.502516393202704,0.544318493219674
260,grasp,12m,OC,0.493958689278477,0.582022328331265,0.607092013621954,0.464383244748321,0.583699424501126,0.492426836831283,0.521976876695273,0.604537213979365,0.582488578711254,0.549539551745044,0.44268279773005,0.569368163825919,0.501264548414226,0.480679354540753,0.596770228965649,0.5266323990259,0.565311259950097,0.504790230850587,0.540651679871424
270,grasp,12m,OC,0.497877257466694,0.583341356256759,0.598874142775966,0.464142543902992,0.586348309796677,0.495162536816065,0.518813042655019,0.600893599053119,0.582010785468215,0.547414519459544,0.440649395792596,0.569646605462253,0.496300945017283,0.478951321302522,0.597941641308347,0.515637818837133,0.567600966759915,0.507476892404035,0.537279202824191
280,grasp,12m,OC,0.501761581715862,0.583506244208813,0.590675366316502,0.46547205381886,0.588188015086064,0.496713195042862,0.516803363418409,0.596454767948869,0.582130935418319,0.545000346583603,0.438346902479078,0.56969877466837,0.491222242139401,0.478094823998118,0.599555512118503,0.504011505119102,0.568903596946518,0.510277593535373,0.534102902301506
290,grasp,12m,OC,0.505781809387779,0.582516972054558,0.582423543035987,0.467901024691716,0.589135596704918,0.497646763534384,0.515893780314097,0.591442624679969,0.582653901982813,0.542572617959093,0.435434324491101,0.569432908233574,0.485757414067317,0.477740900736865,0.601630652301749,0.492581360622362,0.569519141024719,0.513044463722413,0.530622557518721
300,grasp,12m,OC,0.510185831655563,0.580222946262932,0.574652585905786,0.471117291945292,0.589593330270314,0.497749474384506,0.515713402778068,0.585734933086557,0.583345214744629,0.540303830936044,0.432479570554281,0.568936370800134,0.479865038192677,0.477713934029577,0.604037630694414,0.482146506209928,0.569649448347957,0.515019309561296,0.526639672682926
310,grasp,12m,OC,0.515084485938095,0.576540202507001,0.566315947009213,0.475085482659918,0.58952258700695,0.497247993685267,0.515485996127172,0.579450136078794,0.583759284603602,0.538378321032908,0.430139511237172,0.568396837988662,0.473520303087351,0.478085606393739,0.606364425868441,0.473027976190785,0.569617342551786,0.515168184795402,0.522271578283273
320,grasp,12m,OC,0.519826998236754,0.571823610012216,0.556919714158645,0.480650140710208,0.589026274215162,0.496375750372039,0.514477602633594,0.572466204121076,0.584097872081221,0.537776315546611,0.428877893847471,0.568140581002237,0.466729086147059,0.479090659368029,0.609022979861847,0.465368710756402,0.569801431047064,0.514516530914615,0.517765917872998
