Time,Condition,Age,ChannelPair,connect_overtime_LA_EEG_12_P04_CTS_MTH_chanpair_12m.mat,connect_overtime_LA_EEG_12_P05_CTS_MTH_chanpair_12m.mat,connect_overtime_LA_EEG_12_P06_CTS_MTH_chanpair_12m.mat,connect_overtime_LA_EEG_12_P07_CTS_MTH_chanpair_12m.mat,connect_overtime_LA_EEG_12_P08_CTS_MTH_chanpair_12m.mat,connect_overtime_LA_EEG_12_P10_CTS_MTH_chanpair_12m.mat,connect_overtime_LA_EEG_12_P11_CTS_MTH_chanpair_12m.mat,connect_overtime_LA_EEG_12_P16_CTS_MTH_chanpair_12m.mat,connect_overtime_LA_EEG_12_P17_CTS_MTH_chanpair_12m.mat,connect_overtime_LA_EEG_12_P19_CTS_MTH_chanpair_12m.mat,connect_overtime_LA_EEG_12_P20_CTS_MTH_chanpair_12m.mat,connect_overtime_LA_EEG_12_P21_CTS_MTH_chanpair_12m.mat,connect_overtime_LA_EEG_12_P22_CTS_MTH_chanpair_12m.mat,connect_overtime_LA_EEG_12_P23_CTS_MTH_chanpair_12m.mat,connect_overtime_LA_EEG_12_P24_CTS_MTH_chanpair_12m.mat,connect_overtime_LA_EEG_12_P25_CTS_MTH_chanpair_12m.mat,connect_overtime_LA_EEG_12_P26_CTS_MTH_chanpair_12m.mat,connect_overtime_LA_EEG_12_P27_CTS_MTH_chanpair_12m.mat,connect_overtime_LA_EEG_12_P28_CTS_MTH_chanpair_12m.mat
-1000,cane,12m,PC,0.635087578298151,0.607449053751626,0.622702915327204,0.514987821950137,0.476277724437501,0.434501195080377,0.536915025476333,0.523242802302951,0.70733688822135,0.566060140104264,0.571899596637057,0.541767857839224,0.470100720162547,0.54814639942486,0.538031223630595,0.443172943428154,0.501900340582249,0.489338095834939,0.472537009767281
-990,cane,12m,PC,0.637325409789772,0.608049159666544,0.621109986054949,0.515990113603518,0.472536103711722,0.437539918471768,0.539036032979791,0.521058365170411,0.704061738662851,0.559091045481135,0.575947796126892,0.538514551081507,0.466624658444514,0.548810224796221,0.544344820890112,0.444474878081908,0.50645664261138,0.490067705677471,0.471467201242896
-980,cane,12m,PC,0.639122551403225,0.608248844145248,0.62025814186396,0.516471163836795,0.468920370464548,0.440273584566533,0.540287772054034,0.518818209538176,0.700474271949991,0.552225002821187,0.580526832166042,0.535483339657383,0.463400091652326,0.549577192371891,0.550413325662603,0.445988843827367,0.510426694365315,0.490777721999207,0.471225118598019
-970,cane,12m,PC,0.64065681461974,0.608221778004196,0.620317143688332,0.516474418508345,0.465037103750066,0.442569496619995,0.541363679711521,0.516395110059799,0.696487092983634,0.545626419829119,0.585320365884897,0.532860165112326,0.460028295205985,0.550403402377888,0.556515802384416,0.447415892342529,0.513300687293149,0.492014725288536,0.471545697236687
-960,cane,12m,PC,0.641964643603907,0.608049418054338,0.621333256525996,0.516301576741955,0.461414978822417,0.444375428699686,0.54232717737595,0.514161318839668,0.692163201686871,0.539550260436506,0.589812606858265,0.530853417281616,0.456514656369546,0.551527496484563,0.562673252508778,0.448265174908359,0.515201920827875,0.494242068998432,0.472746017264779
-950,cane,12m,PC,0.642968272936858,0.607803769888313,0.623342262063189,0.515555205700844,0.457737877590289,0.446145649349824,0.542947563450978,0.512558785531433,0.687646139487425,0.533733325377573,0.59483543932637,0.529405159764755,0.452786585358639,0.552055708744801,0.568854176973884,0.448845722295633,0.516294670653617,0.496705825008458,0.474779771616925
-940,cane,12m,PC,0.643854522238982,0.607478813762668,0.625298745878302,0.514955901988274,0.454089343644749,0.448076091457265,0.542905862045721,0.511126874188251,0.682931401635881,0.528010840093168,0.600364122547512,0.528394080644662,0.448927812522199,0.55202466843873,0.574904403043551,0.449010069696146,0.517053606472404,0.498976833444246,0.477195035345031
-930,cane,12m,PC,0.644310009136604,0.607250744246243,0.626598590698034,0.514353582927253,0.450374359100627,0.450383842035487,0.542150611330319,0.51015903387292,0.677858373066429,0.522165844067502,0.605876180906908,0.527609629017646,0.444962588863187,0.551732809067565,0.580484550199909,0.448687356338876,0.517327315743676,0.500999330568251,0.480118833057903
-920,cane,12m,PC,0.643829008741291,0.607596376570164,0.627757233354459,0.513669876685819,0.446572087464342,0.452957281751323,0.540793428873532,0.509308125001638,0.672153750782691,0.516208092960289,0.611430675317281,0.527277295464847,0.441146600392885,0.551188471739768,0.585435102320822,0.448235253690972,0.517338084739663,0.502729266095455,0.483810321609441
-910,cane,12m,PC,0.642541525546845,0.6084512647891,0.628522734024179,0.513043923612837,0.443189073720952,0.455548510707972,0.538942841432178,0.508607588153681,0.665462474517754,0.510406372785271,0.616932812496773,0.527630699616371,0.437146699958498,0.550507698824625,0.590311012958215,0.447019931263773,0.517109173037865,0.504096979791515,0.488236307363057
-900,cane,12m,PC,0.64057455361132,0.609338925771559,0.628883172670679,0.51270510595576,0.440346059976968,0.458199233656642,0.536649532255522,0.508100481750118,0.657900401595744,0.505110656279971,0.622244100984192,0.528812885170963,0.432481910980185,0.549882928708484,0.595140409800007,0.445383976594325,0.516727610167084,0.505341360646214,0.493366608967647
-890,cane,12m,PC,0.637971399516018,0.610208860251085,0.629286270696809,0.512597883165672,0.437913706823935,0.461173014437682,0.533993446904683,0.507689833181731,0.650217545035357,0.500180534962919,0.627264569963137,0.530558173948746,0.427414090847838,0.549272429963905,0.599893651479484,0.444600402828347,0.516495144523036,0.506593438959512,0.499072493661078
-880,cane,12m,PC,0.634832093811241,0.610916473656867,0.630428652856581,0.512621748623039,0.435717229609024,0.464805048083262,0.53114918323318,0.506806241628054,0.642719221794011,0.495355538028746,0.631904336266076,0.532526645512083,0.422569509514019,0.548510208198902,0.604567248678024,0.443999747795753,0.516477271565838,0.508476716026591,0.505101084111856
-870,cane,12m,PC,0.631236348979661,0.611806576019039,0.63173340419007,0.512973237057437,0.43333949858379,0.468655704449642,0.528377165594702,0.505336634045981,0.635527659161848,0.491103575698955,0.636053700563759,0.534455264465783,0.417915388927348,0.54768893639894,0.609165865799289,0.443569783065229,0.516853294466363,0.510653231368987,0.511192619594306
-860,cane,12m,PC,0.627440632563097,0.612932714257322,0.632451691690748,0.513676223277579,0.43139122308048,0.47274143460386,0.525993766369251,0.503513416762755,0.628713071577655,0.487340106540301,0.639460136140837,0.536415192571288,0.413392378997047,0.546566509259216,0.613662062176001,0.443359304169482,0.51775267353649,0.51251250690478,0.517019106531856
-850,cane,12m,PC,0.623623387177403,0.614096048199041,0.632960495238995,0.514118523809858,0.430000325829779,0.476986860342656,0.524318448572552,0.50117575959684,0.621841982890228,0.483718538750811,0.642182381974203,0.5384866483242,0.409293641402824,0.545347004939935,0.618154368446076,0.443106766539811,0.51885356778308,0.513759035191169,0.522198427529323
-840,cane,12m,PC,0.619631926579037,0.615109562484263,0.633364605021553,0.514021391941664,0.429431571992885,0.48104146705966,0.524254249484698,0.498682489110113,0.615071589944837,0.480183233498651,0.644624918853336,0.540608753245937,0.405708938545923,0.544580519065988,0.622470755410307,0.442867723067822,0.519752338942934,0.514178124389153,0.526924864477605
-830,cane,12m,PC,0.615488896105037,0.615933042563783,0.633203564696996,0.514678218606272,0.429303704808185,0.483938286107306,0.52523569221026,0.496155316685696,0.608768688598064,0.476541301512748,0.646900428697333,0.542533087947105,0.403311557272515,0.544305987415023,0.625800532027428,0.442876023580897,0.520192447909776,0.514061627645947,0.530981928503448
-820,cane,12m,PC,0.611290223681897,0.616594613609486,0.632509689882329,0.514952385872208,0.429623026182407,0.486014548723075,0.526440224091048,0.493784788117187,0.602943432573574,0.473711734558216,0.64875697152678,0.544257885588343,0.401678550826627,0.544394297684797,0.628210171412421,0.443162314297251,0.520037950619411,0.513640565139012,0.534246306139318
-810,cane,12m,PC,0.607002317366233,0.617278658970199,0.631258902002875,0.51533352369297,0.430545245571359,0.48762441915491,0.528294147526285,0.491570493613653,0.597640797489718,0.471182400565879,0.650617353697997,0.546054593072471,0.400235119882076,0.544695084603266,0.629670836152897,0.444149075242414,0.519297731913888,0.512947960248487,0.536790133966724
-800,cane,12m,PC,0.602583927932721,0.61743472175613,0.629886149257843,0.515822752870069,0.431895652147078,0.488689224232307,0.532277029267537,0.489865759733613,0.592242840270505,0.468987741268714,0.65169817161758,0.547716853732089,0.398937298120813,0.54536883456585,0.629709480607114,0.445459742818449,0.518033551356192,0.511987034058078,0.538332393769734
-790,cane,12m,PC,0.598108582890693,0.617089022277417,0.628230782676493,0.516508522331619,0.433430902389037,0.489269831270312,0.537579453454093,0.488548129219421,0.58686742406908,0.466734859816944,0.652868826089903,0.548903045505433,0.397722722179232,0.54654678457146,0.6287834320815,0.446982131682724,0.516780036170205,0.510928158771556,0.538829592431853
-780,cane,12m,PC,0.593861067700729,0.616510237719798,0.62612731261796,0.51701803243518,0.43543354176361,0.48947042046213,0.542966477367321,0.487826357484677,0.58172682797134,0.464197741475039,0.653892266049269,0.5498346706324,0.397164700629703,0.547863215579758,0.627243539176845,0.449223332785884,0.514922604082323,0.510105639711973,0.538783039311618
-770,cane,12m,PC,0.590108711142493,0.616008870226348,0.62356539564447,0.516002637869366,0.437723334098011,0.489546117667095,0.548013191608025,0.487527334676423,0.576801117359098,0.461845927943345,0.654647355728321,0.55081881428639,0.396837979817253,0.549055377874068,0.625265633264522,0.452205104289408,0.512505830108758,0.509496083503972,0.538525567756182
-760,cane,12m,PC,0.58685404983541,0.615739308936781,0.620726709626706,0.514943203306919,0.439419897794233,0.489123297222732,0.551923618801404,0.487253619371216,0.57232010408231,0.459903866252652,0.655357884289304,0.551724310923967,0.396927206548334,0.550096837350152,0.623133353462196,0.455264758376113,0.50980162395036,0.508824420651127,0.538155265098138
-750,cane,12m,PC,0.583546841617938,0.615796733376656,0.617324322660722,0.514112791623729,0.440560234941577,0.487973246519625,0.554565161773937,0.486996726389055,0.56823503671788,0.458389053717489,0.656527638357627,0.552340975977605,0.39779909580202,0.551137647428968,0.620819804430846,0.458391418573469,0.507167567947642,0.507946893873074,0.53766573428272
-740,cane,12m,PC,0.580260026297956,0.616265082951067,0.613507123125369,0.513737574217125,0.441254734302486,0.48619965770842,0.556714844841002,0.486708399531215,0.564491819799009,0.457426247241164,0.658926510002499,0.552531909647088,0.398719124822469,0.552466123646273,0.618359279240266,0.461459554096412,0.504393318928384,0.506765058748359,0.537844189230612
-730,cane,12m,PC,0.576704851464172,0.616870387350846,0.609377549624903,0.513831507360773,0.442022111289708,0.483722589189694,0.55864419566024,0.486246076024578,0.561138611415657,0.457025727912901,0.662090757545349,0.552555680495797,0.399769658631968,0.553628871155643,0.615576750329969,0.464412354095587,0.501311651064321,0.505742469764313,0.539206120329742
-720,cane,12m,PC,0.573313929044504,0.617264020064083,0.604962468046944,0.514337197230207,0.442946492589586,0.480823577165137,0.560433325216024,0.485690237464523,0.557063005126321,0.457530720695708,0.665572585340446,0.552410269776412,0.401223917250808,0.554373817845359,0.612981143435962,0.467285597817225,0.498371887641634,0.505033441135561,0.541008807963704
-710,cane,12m,PC,0.570367147003981,0.617527518905933,0.60025846716096,0.515052715770457,0.444270848081839,0.477472853142097,0.562465449451251,0.48534379671981,0.553176412082386,0.459258531775971,0.6694867239468,0.552138970408784,0.403336487066503,0.554905272889062,0.610571002192274,0.469905786684688,0.495548076343924,0.504151967955863,0.542758696856792
-700,cane,12m,PC,0.568001618295769,0.617900667054218,0.595013988470912,0.516012466610054,0.445689279811163,0.474289270014511,0.564982654281088,0.485070456174604,0.549228864020921,0.461891000399193,0.673031049646127,0.551901407600859,0.405918522123814,0.555182113405615,0.608084149045274,0.472200117286092,0.492608455569649,0.502943043590063,0.544497348581512
-690,cane,12m,PC,0.566683430141973,0.618639551473506,0.589598673680824,0.517130319748022,0.447197676978573,0.471438587736365,0.567968583977555,0.48453353900579,0.545053672038386,0.465289649885909,0.675820211481061,0.551901964223075,0.408756092245857,0.555061514825291,0.605389162282687,0.474378078962764,0.489736278226761,0.501019853422513,0.546063512061999
-680,cane,12m,PC,0.566667367433174,0.61985153058675,0.583453522884825,0.518173604359713,0.449173226251955,0.468661100770632,0.571172475865027,0.483963203967747,0.540567983255454,0.469240681467078,0.677732330191004,0.552205023767108,0.411944910005885,0.55450900227306,0.602751943825129,0.4765978447141,0.487593923787434,0.498261634436381,0.547038476056801
-670,cane,12m,PC,0.567932498218467,0.621523587649832,0.577175684655245,0.51892026435944,0.451080496055752,0.466014350728499,0.574431176926856,0.483535833223636,0.535708583004826,0.473434734712334,0.6786779925634,0.552702346956032,0.415418613407208,0.553705207918191,0.600680735427398,0.478788926279106,0.48597421100976,0.494851102185005,0.547512970797057
-660,cane,12m,PC,0.569759249215195,0.623485080554028,0.570934998528699,0.519305237896566,0.452560921550764,0.463489699092132,0.577876593335883,0.483466092994476,0.530538501194752,0.477572827620818,0.678788692945512,0.553336306663545,0.419112117060412,0.552700882667015,0.59936476734096,0.481115525043695,0.484469939266884,0.490951579795562,0.547674612862645
-650,cane,12m,PC,0.571779711666415,0.625318745099671,0.564758819175268,0.518813878332662,0.453798619243827,0.460902747446689,0.580801563510946,0.483902996083627,0.525816822181298,0.481886111150734,0.678418889265902,0.554410165393075,0.422621726860617,0.551495620670454,0.598461524372098,0.483822131425257,0.483590272120496,0.486960400798831,0.547758986798758
-640,cane,12m,PC,0.573772075950285,0.627016426829761,0.558623730725714,0.51753479241712,0.455292377087773,0.458320258529399,0.583312217045967,0.484811040435857,0.520728845656223,0.486096987245547,0.677494376932003,0.555885078679788,0.425547045496776,0.549978883312081,0.598056676680491,0.486548019232602,0.483339111834944,0.483085670904908,0.547444327897664
-630,cane,12m,PC,0.575499090301238,0.62861408947626,0.552434060424879,0.515697347559127,0.457063117282184,0.456162051919566,0.585753508655392,0.486082590774827,0.515258448761027,0.489701371487693,0.67568212120754,0.557444818585407,0.427790268355835,0.548210492745151,0.597740460762928,0.488995081022426,0.482869225113445,0.479490982458745,0.546909134727744
-620,cane,12m,PC,0.576918429473653,0.629750598013215,0.546025873715017,0.513464281144974,0.459275493212958,0.454313622799872,0.588050017928023,0.487306416359571,0.509556911477719,0.492711816703514,0.673373208479807,0.559071032382269,0.429467426425259,0.546367629595291,0.597103314513233,0.492031130587094,0.482928984315141,0.476758285902631,0.54586851942335
-610,cane,12m,PC,0.578196582395654,0.630294583832436,0.539007300975547,0.511228689600074,0.461388088109352,0.452142479055837,0.590270470887788,0.488692933964608,0.503850452197854,0.495793819558693,0.670591879375305,0.560872575420292,0.430741226199735,0.544391617997136,0.596243683333408,0.495615313460587,0.483898894420411,0.475047799275348,0.544759819809564
-600,cane,12m,PC,0.579351157563353,0.630503766063439,0.531765102236795,0.509261466344171,0.463101374132164,0.449344330311805,0.592571326257533,0.490361286604394,0.497851959231295,0.499158577723408,0.667293121728435,0.562748610124604,0.431817089038518,0.542280191250031,0.594890818912923,0.499233146546552,0.485726674958395,0.474215917439135,0.544058282769902
-590,cane,12m,PC,0.580435670412986,0.630359532542009,0.524916096157346,0.507428026494733,0.464339855034622,0.446187007051224,0.595075193707302,0.49200814191157,0.491932281450543,0.502797816000438,0.663606497121313,0.564675770122259,0.432577290011701,0.539986018182993,0.593545328318539,0.502360580207964,0.488384053936255,0.473931408591082,0.543943258102123
-580,cane,12m,PC,0.581425760579391,0.629423019562749,0.519227078647347,0.50562680628713,0.465202539759824,0.44274407084278,0.59762331493509,0.493375008546973,0.486402307328169,0.506806579041666,0.659669886183737,0.566663746958869,0.432672056167867,0.537611824970142,0.59212725595658,0.505276215614197,0.491714334623817,0.474119290559651,0.544529515065087
-570,cane,12m,PC,0.582193499555092,0.627888710530951,0.514928838088605,0.504011200767313,0.465796731894359,0.439019533818158,0.59993841460788,0.494720769110224,0.481370107394879,0.511321668184469,0.655385060699407,0.568600393477134,0.432316434433184,0.535102991293581,0.590560532714741,0.508569569565441,0.495276964598975,0.474737341654961,0.546012605563493
-560,cane,12m,PC,0.582887897304898,0.626093188770381,0.511458145987387,0.502784293119612,0.465966491763175,0.435534194851928,0.601939306676146,0.496023218484408,0.476786738000728,0.515927000058061,0.650913568722403,0.570378304508711,0.431866249561441,0.53230347365722,0.588685903910168,0.51158537813542,0.498568074072357,0.475794786107241,0.547985100845427
-550,cane,12m,PC,0.583672505183501,0.623999028014033,0.508326220275532,0.502054131935831,0.465500051454845,0.432523878422613,0.603853340341047,0.497083864391779,0.472657705538004,0.520596616072638,0.64639039177894,0.572010862215886,0.431235792835019,0.529221064167537,0.586539229759195,0.514223867609879,0.501322432804793,0.477322431925719,0.550669305083523
-540,cane,12m,PC,0.584324904339531,0.621933778190505,0.505286343008854,0.501849149219298,0.464407232870498,0.429706957776566,0.605345446939554,0.498021074851415,0.469199385327724,0.525434960506121,0.641990726550906,0.573519847993302,0.43073480463736,0.52594350592435,0.584189551514364,0.515506044682464,0.503474870890755,0.479621288205971,0.553221819121588
-530,cane,12m,PC,0.584419981571555,0.61921717505497,0.502709214970535,0.502191855194316,0.463399915885716,0.42744002432742,0.606645803683264,0.49885824242923,0.466378767392753,0.530148570735775,0.637316217817077,0.57484953379701,0.43081157933128,0.522312429544762,0.581422297973989,0.515366879067726,0.504903098902728,0.482649353445009,0.555227527541013
-520,cane,12m,PC,0.584375990889519,0.615924258561098,0.500451927422575,0.503376807187017,0.462317553426388,0.425658674604668,0.607828175905723,0.49961956396242,0.464237817426466,0.534502976501679,0.632498226751637,0.576164595734105,0.431107501353914,0.51868040616713,0.578129113236377,0.51478362982455,0.505994207119577,0.486259764987779,0.556581164225178
-510,cane,12m,PC,0.584335854267542,0.612155045822096,0.498559683740097,0.50535478554373,0.461116789561037,0.424091013464214,0.608943302981415,0.500166355711177,0.462887594104249,0.538386551521023,0.627755086044651,0.57748401995616,0.430861059529028,0.515055319172389,0.574491566172469,0.514183222509484,0.50677935034751,0.490258646939449,0.556994476587748
-500,cane,12m,PC,0.584387567447798,0.607565861262323,0.498375715600324,0.507735389269535,0.45970394784175,0.422794350998636,0.610030978176461,0.50066754163629,0.462366233690132,0.541689975702143,0.622903920290191,0.57875823185901,0.4305025946973,0.511656737786399,0.570891464625881,0.513384946937419,0.506862319510555,0.494283621279963,0.556681571988307
-490,cane,12m,PC,0.58459830464602,0.602520166441883,0.499483511311433,0.510039394383746,0.458241727837047,0.422195662727169,0.610916023685678,0.50129310904679,0.462570887432818,0.544573730745268,0.618276923504014,0.579958822884783,0.430052468502847,0.508601775853857,0.56720769179669,0.512772710941499,0.506378378175826,0.498360984326018,0.555282957710363
-480,cane,12m,PC,0.58496270404985,0.597360806654238,0.501472132718357,0.512815885186469,0.456544437750096,0.422234970707128,0.611143917059275,0.501979526917996,0.463261783222781,0.547092040964693,0.614245488904666,0.581130587464827,0.429829555490075,0.505831800420031,0.56415454091295,0.512590623269293,0.505467643854898,0.501839957783932,0.552964598910339
-470,cane,12m,PC,0.58551729864661,0.592221835300223,0.503453559180317,0.516139874378942,0.455209565089829,0.422947533482594,0.610932477754981,0.502856196913565,0.464966969402492,0.548504475686043,0.610914763723092,0.582422938324593,0.430159981968396,0.503404900947796,0.561204000971312,0.512925142331855,0.504093720607854,0.50425995595444,0.549877508020047
-460,cane,12m,PC,0.586202820609174,0.587006456736539,0.504918338844531,0.519189494234989,0.45456422892102,0.424513637856409,0.610305401414526,0.503985800661638,0.467575356549158,0.54902217945671,0.608249096147683,0.583919875968612,0.431187673504075,0.501444318229081,0.558187860180612,0.513749079485117,0.501840130133631,0.505563365573314,0.546048739171948
-450,cane,12m,PC,0.587022580636264,0.58203739264632,0.506318072305583,0.521602981843369,0.453697231421616,0.426448529057491,0.609394008445097,0.505246246880558,0.470759331234403,0.54870517604838,0.606552250772579,0.585692098871756,0.433059622476043,0.500003126270152,0.554977927944869,0.514851938745286,0.499162319778563,0.505184202845001,0.541785968911099
-440,cane,12m,PC,0.588619842167924,0.577480175445085,0.507514551764948,0.523688810927019,0.452092359355307,0.42865051060225,0.608386890332232,0.506439890952757,0.474195435213026,0.547817578582513,0.605913538243199,0.587825313494581,0.435309015715183,0.499307285036716,0.551903460494055,0.515924622161505,0.496315266868253,0.504310242335972,0.537676957169406
-430,cane,12m,PC,0.59049473121982,0.573323593891036,0.508424666401588,0.525270382083497,0.449939210238717,0.431291938052434,0.607475083159845,0.507776885604631,0.47769293698307,0.546634797075391,0.605662229816871,0.589998306622728,0.437714459199317,0.499438601746214,0.549254070124119,0.516937537465419,0.493870389068303,0.502415946844695,0.533726682509264
-420,cane,12m,PC,0.592517590495774,0.569568925159528,0.509078169792307,0.526754767825865,0.447658853039162,0.433991244940628,0.606955822917057,0.509288026318743,0.480887509347636,0.545336659628963,0.605496070572849,0.592387304601373,0.440197726947657,0.500320236886136,0.546943790197496,0.517530744183816,0.491412794117544,0.499759776921503,0.529828339293422
-410,cane,12m,PC,0.594259508626337,0.566317934441346,0.509286341753789,0.527959238621932,0.445420947270359,0.436496007398783,0.607089585052811,0.510603902431376,0.483281623976796,0.544030945427913,0.605125822845706,0.594947406874169,0.442829887358835,0.501266498709948,0.545002328640282,0.517413513577634,0.488877111633377,0.496765528592769,0.52652101594569
-400,cane,12m,PC,0.59564967487553,0.563609282692611,0.508459657907046,0.52897132514597,0.443365916077631,0.438575437071161,0.607525476835682,0.511869733321635,0.48494827533205,0.543013374343402,0.604143252327664,0.597494652852557,0.445005665072446,0.502354595078908,0.543379990314805,0.517109446323931,0.486516922659108,0.493543139595589,0.523743895959516
-390,cane,12m,PC,0.597033015148327,0.561322351359514,0.507036321490886,0.530017133150322,0.441657001843629,0.441107194750798,0.607366899756848,0.513166705369276,0.48636440832521,0.54210170811945,0.602491184408692,0.599872854227248,0.446557171590748,0.503650573587951,0.542254369726338,0.516644558663927,0.484471298794604,0.490117764441988,0.521876420945351
-380,cane,12m,PC,0.598391577937843,0.559311025559918,0.504532089135392,0.531323825281941,0.440312106938009,0.444574379165145,0.6067211645206,0.514403042037668,0.48722251795949,0.5411310742461,0.600847849088601,0.60216433838273,0.447392647613521,0.505229194463888,0.541439983965981,0.516117519251714,0.482483622545358,0.486811246886982,0.522071983539817
-370,cane,12m,PC,0.599930210055494,0.557828508082013,0.501017640258464,0.532555662259494,0.438722204013942,0.448123996261399,0.605841352286061,0.51583800391325,0.487469741725822,0.540009641451544,0.598841151493234,0.604020819662073,0.447302838684972,0.507178766843584,0.540769248852044,0.515912817023734,0.480672911290446,0.48366042184463,0.523699947923641
-360,cane,12m,PC,0.601660460578125,0.556759694770688,0.49592665179674,0.533516350134852,0.436574561893831,0.451758354987577,0.604737312916036,0.517466118782314,0.487296944787797,0.538503312830183,0.595616008080762,0.605340064018795,0.446888180402904,0.509044454050465,0.540240124050372,0.516213511700446,0.479173442886135,0.480449553628184,0.526218534570528
-350,cane,12m,PC,0.603505501184256,0.555838408253073,0.489769870327657,0.534373878449989,0.434469872873544,0.45566135608033,0.603327562945207,0.519321416659392,0.486822149869725,0.536308594751238,0.591251848580203,0.605907526101035,0.446523923676541,0.510675114649331,0.5397105634121,0.516592648006215,0.477761674666034,0.477039528242738,0.52981582962393
-340,cane,12m,PC,0.605306576942203,0.554945049905679,0.482922570966307,0.535420596878464,0.432734585126231,0.45959713105835,0.601646013606513,0.521954203972937,0.486017673006989,0.533617398660819,0.586086158258394,0.606015108133793,0.446089007482706,0.511866061338754,0.539156155931166,0.517128696473824,0.47613215339008,0.473760118571961,0.53431262414274
-330,cane,12m,PC,0.607352765976818,0.554186590516169,0.475893087208304,0.536690719079942,0.431554942860354,0.463140080505201,0.59953870348256,0.525235833810758,0.484789462294631,0.531003841440643,0.580350968786653,0.605968831859288,0.445383811076726,0.512900436561795,0.538546751617094,0.517698574821952,0.474415899996153,0.470515180099234,0.539409939915253
-320,cane,12m,PC,0.609493250059083,0.553406345256725,0.469159184565936,0.537926178227851,0.430627457308853,0.466328363665393,0.596894530627831,0.52864229546469,0.482987007796327,0.528725351253878,0.574153595342213,0.605796883479843,0.444445913537802,0.51366789517974,0.538017676800125,0.518217199273116,0.472607375827961,0.467195376464829,0.544899617922998
-310,cane,12m,PC,0.611309720286828,0.551975891669582,0.462826303899403,0.538606681996891,0.429929941727071,0.468990137974883,0.593758802833918,0.532312630509105,0.48099517819514,0.526534114333341,0.567658741839239,0.605546603212639,0.443446484027099,0.514241549360818,0.537664866434217,0.518678231517615,0.470877091056411,0.464089909903328,0.550566426018104
-300,cane,12m,PC,0.612826237061473,0.549744545320472,0.456780273818408,0.538943326753902,0.429511060319796,0.471163202282466,0.590307917423376,0.536403811474683,0.479068624505121,0.523967317669827,0.561121783071619,0.605197529351309,0.442939056915119,0.514705410905192,0.537325138167693,0.518573394240609,0.469529575567211,0.461279629256294,0.556081264725362
-290,cane,12m,PC,0.613953902828072,0.546957812347364,0.451353199970207,0.539599503367046,0.429602800112726,0.472927980521092,0.586087732743594,0.540535809231537,0.477003521538603,0.520921468829092,0.554836273092588,0.604615856833077,0.442555485913072,0.515452862030898,0.537175060995659,0.518866135756964,0.468403307254053,0.45894701866989,0.560966804487256
-280,cane,12m,PC,0.614693962926812,0.543635783026133,0.445925198540496,0.54017224134845,0.429718443901463,0.474239079688031,0.581441001794987,0.544717654112112,0.475467948469045,0.51791498986047,0.549163854460499,0.603811526727377,0.442813582251092,0.516541614106416,0.537135901641089,0.519581218233723,0.467614022332689,0.457289625293255,0.564936695721465
-270,cane,12m,PC,0.615146285532274,0.539885904125659,0.440840178880093,0.540771034446514,0.429837552048015,0.475045407207673,0.576738954372025,0.548961397269766,0.474790052713214,0.515437761837852,0.544387606452081,0.603170177886662,0.443645882902133,0.51785886042877,0.537032975498748,0.52099915343361,0.467290148874025,0.455851204079721,0.567285428517493
-260,cane,12m,PC,0.615509470426848,0.535414721235286,0.436252509430647,0.540839198985243,0.430695321977044,0.475656079412272,0.572061926940265,0.553158799337041,0.474491814457903,0.513368344418286,0.54046253403427,0.602715046577436,0.444942084326414,0.519273742802544,0.537419403820932,0.522838235218586,0.46814815462413,0.454483604525026,0.569229498142173
-250,cane,12m,PC,0.615882092244642,0.530535171776879,0.431648899848214,0.539734151836145,0.432185748044065,0.475066618167831,0.567290533998936,0.557271383319742,0.473576375589516,0.511919579856885,0.537364638889852,0.602270066796565,0.446887255137261,0.520847585892183,0.537826001447511,0.524686301947596,0.469450395752043,0.453257328840097,0.570775258040593
-240,cane,12m,PC,0.616101079275916,0.525043296631597,0.427001981479058,0.538296859366771,0.433753741116984,0.473903746070356,0.561843132138964,0.561215085309689,0.472715818663768,0.510943568216602,0.535224960565993,0.601450511044606,0.449308569763197,0.52264810384898,0.538684997340716,0.527487089637079,0.470766792703811,0.452119469852128,0.571934448135504
-230,cane,12m,PC,0.61638190057441,0.519248984231331,0.422586983613423,0.536266478536946,0.435813701694862,0.472300414412424,0.556364680343479,0.565054310733058,0.471770903198335,0.510114992522998,0.534258790232077,0.600561543196469,0.452222501701969,0.524484678572287,0.540075789249958,0.530404824466137,0.471655452167149,0.45098568655203,0.572608460838607
-220,cane,12m,PC,0.616659075832652,0.513065973521291,0.41816551322089,0.534144174270285,0.437798348008158,0.470238808714329,0.551107035451161,0.568569716741101,0.470750513399027,0.509062713666857,0.534527413648727,0.600002364612852,0.455559439906444,0.526316993773597,0.541857786599691,0.532705001910526,0.472239182825816,0.449962207573444,0.573277618931397
-210,cane,12m,PC,0.616553571298467,0.507162093376006,0.414301793273606,0.531938418028296,0.439523611168962,0.468235455453695,0.546203422757366,0.571749611573907,0.470149799510991,0.507348017178639,0.535992471308705,0.599955366887258,0.459259319487075,0.528016991460732,0.543859388637206,0.534181399986001,0.472847279291664,0.448630846749973,0.574177336969673
-200,cane,12m,PC,0.616291130748124,0.501672702095252,0.411256122906855,0.529630906961728,0.440645371087246,0.466506824880442,0.541653432040003,0.574353496638487,0.469869925819539,0.50500506257258,0.538475647495921,0.600164828674779,0.463155360118102,0.529717275524211,0.546160694126354,0.535096168447148,0.473323678130286,0.447017540440182,0.575413350973735
-190,cane,12m,PC,0.615489399824777,0.49664501075942,0.409330769048392,0.528175528232616,0.441197112086736,0.46481372364345,0.538600257854683,0.576363174040377,0.469871834739233,0.502505226392798,0.541831790467589,0.600476361843795,0.467550246153548,0.531161145216021,0.548325262781908,0.535672866719692,0.47404985407364,0.44546477311825,0.576868180119101
-180,cane,12m,PC,0.614478677712942,0.492677224449181,0.408359978069676,0.527889009749738,0.441453467189743,0.463188126518381,0.535673373180759,0.578482343315868,0.470183786138662,0.499747905507495,0.546500565757317,0.600651576819665,0.472524312474443,0.532433105402559,0.5502490392864,0.535753494211909,0.475466064649211,0.443739945340322,0.578767930263112
-170,cane,12m,PC,0.612987756143853,0.48915298032775,0.408511006739127,0.528147743934771,0.441486043145445,0.462065045444968,0.532214798706275,0.580178740574659,0.470855393777328,0.497027189592702,0.551683314050075,0.600684452429279,0.477672084264714,0.533559775177146,0.551884210469307,0.535077766436457,0.47768981468716,0.442051665381028,0.580771234416974
-160,cane,12m,PC,0.610883498742307,0.48601598836976,0.409734789825147,0.528682179986132,0.442040453061885,0.461821014462156,0.528503469687266,0.581341967236518,0.471517846220843,0.494459003108166,0.556968775037287,0.601039071318115,0.483272532394446,0.534586874025494,0.553147262158476,0.53365962926308,0.480494979320958,0.440632736262202,0.582544770862137
-150,cane,12m,PC,0.608048748049141,0.48313444991003,0.412254061169846,0.528884515677881,0.443075790571174,0.462169650365451,0.525144132785395,0.582013636904681,0.473878269994695,0.49258271889132,0.562037224137367,0.601452068046162,0.489246731953738,0.535314718401273,0.554266361276531,0.531715396645421,0.483839459864359,0.439711464231416,0.584254230493154
-140,cane,12m,PC,0.604805402674729,0.480497505771851,0.416042977174334,0.528774929442941,0.444442949143263,0.463460802098896,0.522670770007637,0.582341355801257,0.477112896052928,0.491475725542988,0.566732887363159,0.601826143083388,0.495638110340837,0.535540051209466,0.555223544906425,0.529529481560876,0.487684468745309,0.438500509104652,0.585626641978555
-130,cane,12m,PC,0.601041794532251,0.478093587130605,0.421038871838528,0.528545744042621,0.44580071943108,0.466010366884572,0.521105458844627,0.582117432816275,0.481073784232841,0.491182764075415,0.57065426250563,0.602057965564769,0.502261931080023,0.535453997447288,0.556046747743266,0.527039043486091,0.492109908164748,0.43664148416182,0.586613782899959
-120,cane,12m,PC,0.596791702527926,0.475783905303373,0.427231887170118,0.528578581830906,0.447385484646122,0.469144399419388,0.520539478415073,0.581214882354285,0.485553320650846,0.49113653667573,0.57263900211254,0.602215570108727,0.508829975342226,0.53532262274202,0.556548655826296,0.524740408016778,0.49807165597973,0.434036293084144,0.587516572281394
-110,cane,12m,PC,0.592511826551201,0.473205808229144,0.434204093508017,0.529391938718467,0.449048870819516,0.472961748037481,0.520859867449993,0.57949167967749,0.490676791683577,0.491285281229559,0.573696015766463,0.6024354892603,0.514932422811744,0.534904867142329,0.556911048188071,0.522581256974214,0.505108886742197,0.431076477698282,0.587724366092408
-100,cane,12m,PC,0.588329102102575,0.47042400854011,0.441712548195385,0.530574037550732,0.450307678323724,0.477419907222535,0.522318785895228,0.576898442602861,0.496265325670295,0.49114929471443,0.574974104558918,0.602894529419675,0.520439480020599,0.534305834881552,0.556917772039109,0.520369624063971,0.511604725168911,0.427849887978322,0.586748315455208
-90,cane,12m,PC,0.584418747477701,0.467416068598374,0.449651165715381,0.531841777569725,0.451326444813302,0.482026841585278,0.524026338770685,0.57394197604474,0.501979088253313,0.490709910565427,0.576138238331175,0.603506826946609,0.525158197403818,0.533683893122684,0.556116983821539,0.517789095252085,0.517642295730433,0.424526435343812,0.584906205711656
-80,cane,12m,PC,0.580835408639668,0.464414437492505,0.457737393119751,0.53314216414782,0.452157621524652,0.48669692110257,0.525509591980352,0.570927167713175,0.506742828506112,0.48996628465004,0.577291470617144,0.603998615168809,0.528565729833127,0.532995469172701,0.554886916654457,0.514877249928313,0.523003142489805,0.421501557159659,0.582477309472221
-70,cane,12m,PC,0.577752202261239,0.46151672686388,0.465481129489221,0.534361914546091,0.45232836577337,0.491419858366932,0.526346079014514,0.567875573465994,0.511015720615673,0.488775045721291,0.578870368295234,0.604445430652903,0.53064356410242,0.53225063806092,0.553326186403259,0.511690219991284,0.527626424685416,0.419082430429476,0.579445427342233
-60,cane,12m,PC,0.575455358568253,0.458939701175884,0.472686967104637,0.535524328855899,0.451462661674434,0.496451721362272,0.527078824933805,0.564989103503203,0.514701986573744,0.487265409756254,0.581004715038061,0.60491445719094,0.531380002487463,0.531342722007154,0.551523266173295,0.50811860714463,0.530676645352177,0.417420241225561,0.575944953328644
-50,cane,12m,PC,0.573843200182691,0.456584161253931,0.479505973339721,0.53656980307815,0.449935667215786,0.501984650325135,0.527856457833019,0.562584471494147,0.518170466410712,0.485881297468975,0.583270574241326,0.605348240029603,0.531162547841556,0.530424271550828,0.549210843038584,0.503989267514606,0.532932659533072,0.416583894042143,0.571764174930807
-40,cane,12m,PC,0.572943414475448,0.454423069328975,0.485624354414475,0.537756073650681,0.447992770552548,0.507485336029491,0.528872452372329,0.560748020487429,0.521589159350925,0.4847732784369,0.585535729532397,0.60597497359799,0.53021896604077,0.529649360296861,0.546360697713724,0.500390320814301,0.534685741948246,0.416502496331312,0.566937203521113
-30,cane,12m,PC,0.572557989529523,0.452502210403764,0.491006700016214,0.538699427710534,0.446210747679413,0.513116612209971,0.530060983990487,0.559589807415309,0.524996687665511,0.483842669368128,0.587749031819247,0.606639251699557,0.528827370640807,0.528866389986514,0.543131768905069,0.497711559345816,0.535839828536795,0.417069248623418,0.561832643336308
-20,cane,12m,PC,0.572532864573991,0.450920634908801,0.495719839291128,0.539928653635842,0.444215329402166,0.518735249771738,0.530756392258266,0.559016790493129,0.528311519876292,0.483508959556349,0.589964501838264,0.60705292196675,0.527295378986702,0.527877465791245,0.539731640638913,0.494386311155213,0.536789803641787,0.417934083616739,0.556582391882086
-10,cane,12m,PC,0.572654157959704,0.449882741742111,0.499516581316243,0.541550806712638,0.441941647407397,0.524165630583103,0.530812718815752,0.55880183958123,0.531473368289992,0.483963420921645,0.592125483107024,0.607290363140719,0.525705887229861,0.526979415838185,0.536360862856998,0.490748756558751,0.5378808495942,0.419185943016559,0.551224638375778
0,cane,12m,PC,0.572829094505989,0.44977257247119,0.502463197731949,0.543525848319371,0.43985517775776,0.528967816746996,0.530235789979751,0.558686222257022,0.534891460424363,0.48499414558277,0.593462393102788,0.607168404963531,0.524067999851939,0.52615209136892,0.532779401669688,0.48761604273189,0.538948494446738,0.420355410826598,0.545908628025336
10,cane,12m,PC,0.573217727217275,0.450094693235486,0.50485857721107,0.545533212134002,0.438140087053782,0.5326537606887,0.529101640335423,0.558737118801132,0.537795403991058,0.486317249178667,0.594568650811821,0.606469799377516,0.522308817696887,0.525358794765984,0.529576219820275,0.484917898042028,0.539804576112902,0.421538916196787,0.540604550806338
20,cane,12m,PC,0.573887318142207,0.451117069407005,0.507019751951085,0.547557006448346,0.437172398288958,0.53526548032722,0.527708146965345,0.55898390049573,0.540982772961266,0.488081730417353,0.595844778453663,0.605192764052316,0.520073729639637,0.524468953204217,0.526712888909538,0.482648427841042,0.540831711267054,0.422527079918345,0.53539189418619
30,cane,12m,PC,0.574978120665707,0.452721262658653,0.509104666970576,0.549765237810018,0.436835343392592,0.536710203252075,0.526134302699371,0.559729867868537,0.5437766159862,0.490286602112567,0.597409027942789,0.603500416124927,0.517520786110769,0.523834250568625,0.523995768967458,0.480282479653263,0.541905675797521,0.422897045658564,0.530362802742635
40,cane,12m,PC,0.576531801210194,0.454609022448704,0.51130240991553,0.552299433579981,0.437260770398824,0.537464676440315,0.52462825665498,0.560733633782935,0.545438132826605,0.492137027308222,0.598838506607247,0.601475670224943,0.514458199719805,0.523184315670554,0.52137060666657,0.477826195798842,0.542874770735491,0.42274954918549,0.525755528990327
50,cane,12m,PC,0.578230145480751,0.456675557698343,0.513249189254781,0.55517293634769,0.438211664506453,0.537459092375622,0.5231517313328,0.56218601374596,0.546532451352027,0.493454840888484,0.600079936014553,0.599148257031312,0.511218364672964,0.522285806502255,0.518920071407785,0.474957573386334,0.543478984027865,0.42245031763452,0.521736295218531
60,cane,12m,PC,0.579904337696497,0.458330690932491,0.514389746095979,0.558200510322726,0.439296151859912,0.536344446884928,0.521992555272926,0.563758370591459,0.547268663746708,0.49476445471122,0.601012960007718,0.596715996336271,0.507757495981653,0.521118488256523,0.516681564693156,0.472261641779885,0.543194134734761,0.422259117269174,0.518325688925605
70,cane,12m,PC,0.581460721062821,0.459295616203561,0.515093340782301,0.561239898384929,0.440957075826338,0.533968837654458,0.521768468346239,0.565057380075524,0.547617979128926,0.496479257817459,0.601562249548386,0.594407984968648,0.504011834945001,0.51963993393787,0.514795817015013,0.469945650719989,0.542461760153678,0.421656310859914,0.515030921541049
80,cane,12m,PC,0.582951118617367,0.460088080115225,0.515237881580257,0.564109706441155,0.443088539852392,0.530936579742355,0.521822652242429,0.566690720292654,0.547497522266088,0.498733682254852,0.601706337818074,0.591978308193543,0.500226733578251,0.517960898352993,0.513420703230336,0.467966509159565,0.541119882260987,0.421072295909597,0.511872450659984
90,cane,12m,PC,0.584129877706129,0.461086549053229,0.514952740317283,0.566659059952005,0.445283944770541,0.527247119026741,0.522257923328236,0.568835581766466,0.546933475690616,0.501434602252351,0.601023073376121,0.589491728500486,0.497009132299547,0.516193332224818,0.512611023761203,0.465618300201822,0.538935812272059,0.420419545345797,0.509556855606852
100,cane,12m,PC,0.585024865603462,0.462573175729448,0.514495021648032,0.569163648274811,0.447199378957481,0.522914659432049,0.523182667046604,0.571101917927498,0.546479682645786,0.50456382623749,0.600013920436463,0.587090268769623,0.494568808532984,0.514149044734699,0.512562900950716,0.463686701589209,0.5358127230424,0.419818504402037,0.507427969314817
110,cane,12m,PC,0.58541141854196,0.464620396921919,0.514264612357982,0.571686445649989,0.449691150006295,0.518541336051619,0.523667145263767,0.573656863815232,0.546359472422778,0.507992756194252,0.599371499750475,0.584937685651236,0.493535006988632,0.512250935343044,0.51305387929281,0.46215096567763,0.532502940965477,0.419468250155997,0.505084383367844
120,cane,12m,PC,0.585052916900653,0.467102230260924,0.514503827415144,0.573876326148637,0.451813404397726,0.514820794914412,0.524638886188854,0.57669692120124,0.54639241721978,0.511634571689414,0.59880255697402,0.582939185130415,0.492928454484167,0.510718007866332,0.513405216004325,0.460922902887486,0.528967713183282,0.419195944410568,0.502595339002417
130,cane,12m,PC,0.584025024756738,0.470171322616597,0.515227665002426,0.575418425862214,0.453111492561705,0.510049149217609,0.525557087285325,0.58013293332193,0.546611852622988,0.515384537148819,0.598187680157251,0.581116699407841,0.492427137730904,0.50896240606679,0.513775579336237,0.459724053017204,0.525068290519471,0.419209915501689,0.499939327399294
140,cane,12m,PC,0.582860379089259,0.473892464949261,0.516472501983889,0.576113152814593,0.453543644244637,0.504437633295077,0.525814283396233,0.583701424977094,0.547075818646661,0.519531670288278,0.597940606822168,0.579284730867713,0.492207742088402,0.506831621042058,0.514300643341086,0.45900124362394,0.520781740009396,0.419431540321745,0.497619883613598
150,cane,12m,PC,0.5815884469711,0.477943976505767,0.517863594115881,0.574739307761842,0.453663180368559,0.498063975404193,0.52525515020964,0.587079651608251,0.547918442817369,0.523798934850087,0.598028577825034,0.577366140841697,0.492338559253617,0.504130125919773,0.514700677087159,0.457755049450513,0.516376396866525,0.419945360343262,0.495670537603369
160,cane,12m,PC,0.580174181057649,0.482026756394407,0.519384304842651,0.57163015989604,0.453589353146207,0.491439304691945,0.524018511234014,0.590305249896421,0.549416091394586,0.528035217176888,0.598274248058861,0.575497799838962,0.492496238791522,0.500976238626999,0.515287981564598,0.455933352897072,0.512174153572671,0.420406223580787,0.494384132453124
170,cane,12m,PC,0.57857863067733,0.486171850019968,0.521265913127939,0.567154121679456,0.453190068559987,0.484361763198369,0.522300891276729,0.593135074554204,0.551646744904372,0.532251889857442,0.598283151451272,0.573650955470232,0.492642429626934,0.497558687732149,0.516140651406222,0.45355406507178,0.507979315537112,0.420570939609541,0.493960833025387
180,cane,12m,PC,0.577132556470197,0.490322768132499,0.523269587888212,0.561796986159046,0.452522164528772,0.476443535836382,0.519562807869306,0.595434713443894,0.554417782675569,0.536738050389398,0.597540133102983,0.57187138449315,0.492905323037956,0.494307800269712,0.517207942817785,0.451172893507625,0.503646997530576,0.420518127712728,0.494510657383103
190,cane,12m,PC,0.576072743624114,0.494662540305556,0.525187481806842,0.555432589715822,0.451365261355605,0.468767239315441,0.516079119887843,0.597306814839505,0.557798891230785,0.541226621561577,0.596334019898306,0.570348350441331,0.493152087209894,0.491250159917058,0.517988189046927,0.44924906852517,0.499240243723552,0.420185959747231,0.495691522974278
200,cane,12m,PC,0.57525791070219,0.498816675188951,0.527062466980691,0.548181447760327,0.449911365095749,0.462325991780232,0.513077607434968,0.598843725591212,0.562133674785336,0.544997359978731,0.594746561755166,0.56862727822731,0.492768070511562,0.488291965878682,0.518246656803281,0.447209585923877,0.494777895504299,0.419911029428947,0.497210011339048
210,cane,12m,PC,0.574640505898092,0.502677603205345,0.528825402574177,0.540713732732104,0.448417155902747,0.456631845749784,0.511111695539416,0.601020223216776,0.567273483472014,0.547947914209118,0.592679738873889,0.566607284738238,0.491636332016218,0.485848043475963,0.518289503112295,0.44532739259374,0.490280287418015,0.419870459607195,0.499368637890268
220,cane,12m,PC,0.574304813403844,0.506386630738882,0.530313166800348,0.533869756664948,0.44681896502105,0.4517205725229,0.509594926903662,0.603128760594382,0.572822660601255,0.54994166436786,0.590924670408956,0.564331855709966,0.489803903881527,0.483944201780594,0.518277221521688,0.443687232406954,0.485206991724511,0.420342509196071,0.50212431329472
230,cane,12m,PC,0.574218765019055,0.510209830197822,0.531377331799351,0.527824643494525,0.44464655399581,0.447694472565317,0.508016441727661,0.604542706118073,0.578426960706249,0.551272044874421,0.589746603554137,0.561600404396049,0.487533557970032,0.482632319400133,0.518128915831151,0.442152359318472,0.479915474087293,0.420853635024989,0.505133424591252
240,cane,12m,PC,0.57443705226301,0.51392647699747,0.531838481827984,0.522422454780128,0.442490300343758,0.444534113253129,0.50594395261927,0.605271118523922,0.583800629521825,0.552226961711726,0.58853442359404,0.558613205176967,0.485245598157203,0.481683500865458,0.517485416555056,0.440968681793739,0.474582003580944,0.421623680081993,0.508265433776926
250,cane,12m,PC,0.574736004150589,0.517166836654413,0.532111856960231,0.516854742229663,0.440820869015015,0.442152597873299,0.503115420997654,0.605189900047087,0.5890339791101,0.552925763044074,0.587147661222297,0.555638986408585,0.482778554241057,0.480710046716694,0.516206976680961,0.439640923084522,0.469653850576821,0.423053165217578,0.511191768984745
260,cane,12m,PC,0.575263859078838,0.520541782227525,0.532542513532119,0.511236585089596,0.439426081691645,0.440407685807791,0.500503894015228,0.604164471767016,0.594256303785518,0.553194541041478,0.586013915013375,0.552977673256942,0.480067551288675,0.479764544019559,0.514096113515561,0.437787870424968,0.465171728241788,0.425339849749394,0.513498824392466
270,cane,12m,PC,0.576285957852096,0.523889010502456,0.533117263926001,0.505550743007688,0.437908459617773,0.439314090915082,0.498037400940289,0.602742863271038,0.599340621223017,0.552870449446471,0.584975733747455,0.550837248382042,0.476729095412468,0.478324660231573,0.511265388570796,0.435287673655368,0.461129631694397,0.428049175006059,0.515721346925995
280,cane,12m,PC,0.577717355842707,0.526551522188658,0.534063651173899,0.499709526822956,0.436714566481877,0.438756444769505,0.495290731192121,0.600913219628196,0.604037272558068,0.552027176388537,0.583861020206268,0.549114094712706,0.47282652027647,0.476469611759273,0.508136853186811,0.432482504961614,0.457686453571545,0.430599082002417,0.51770564530032
290,cane,12m,PC,0.579294926790374,0.528287253951868,0.535551970504598,0.493807599159445,0.435842641519819,0.438569004092201,0.492834781241355,0.598405409199836,0.608657355306036,0.550798357918789,0.582639471818752,0.547803337579957,0.468738376343915,0.474285421141182,0.504678832777605,0.429757228178477,0.455599239367203,0.433146578577447,0.519337268586085
300,cane,12m,PC,0.581036278147368,0.529339540609617,0.537043743410408,0.488381700950985,0.435491635133591,0.438696345445061,0.491067457641267,0.595177341496873,0.612900308977527,0.548770644067372,0.581006574317209,0.546683559114916,0.464433213702016,0.47211332102213,0.501450959228936,0.427443077671311,0.455295876791873,0.435804250955307,0.520621577124698
310,cane,12m,PC,0.582872553438486,0.529789285222254,0.538099138575039,0.482823749626184,0.436083060261719,0.438690516799853,0.490320099147252,0.591171485280221,0.616421983163468,0.545733899954338,0.578784856987482,0.545751790667408,0.460501944146177,0.469775484298864,0.498151603799175,0.425649389474228,0.455926144064614,0.438534217353225,0.52086106688241
320,cane,12m,PC,0.584914649669129,0.530031711888681,0.538236627254859,0.477602737369096,0.436423198228262,0.439198753920003,0.490558628156111,0.586603570692324,0.619281832306063,0.542132327859093,0.575953129370721,0.545048395139498,0.457401039735918,0.467476520767468,0.495240232694055,0.424191737410979,0.456914118170865,0.441127725942837,0.520630601285955
330,cane,12m,PC,0.586998368344471,0.530166010329589,0.538370242828218,0.471868542529811,0.435934525199234,0.439877269074019,0.491695405050027,0.581876732758401,0.6214296274433,0.538584450057777,0.57286623599135,0.544392826765216,0.455045908841901,0.465568278278115,0.492904244536888,0.422568123042272,0.458315542433595,0.443838483359598,0.520434595521805
340,cane,12m,PC,0.589139642677732,0.530176517573196,0.538527409446494,0.465427633372052,0.435736223852257,0.440041820373498,0.493666417175192,0.577256426157528,0.622688483525885,0.535558799256372,0.569693508696051,0.543545605245959,0.45334273272007,0.464511213495914,0.491463046293005,0.420434889725836,0.459611165475696,0.446237086933654,0.519844982382487
350,cane,12m,PC,0.591421752400377,0.530273570054922,0.538955234600292,0.45896068391857,0.435831974135709,0.438787028369958,0.496278258116784,0.572548060176842,0.622810382789459,0.533393231805842,0.566778004859402,0.542568458900413,0.452579018941986,0.464347372152107,0.490914596501575,0.418025223219503,0.460548659332604,0.448172581461404,0.519065477892487
360,cane,12m,PC,0.593793425458768,0.530307279867895,0.538522693783542,0.453549714698756,0.436426118151465,0.43671968231291,0.499289679269974,0.568208380660411,0.621423869228386,0.531700494216742,0.564669158538974,0.541734537474689,0.452573655432012,0.464801333747007,0.491042787694106,0.416956089073467,0.461364119377682,0.449341550887625,0.518462315121879
370,cane,12m,PC,0.596284130298465,0.529984268001182,0.537373965707892,0.448891889997107,0.437456054596374,0.434206530108012,0.502370765772987,0.564803437356487,0.618360893038636,0.530183209423466,0.563455673566594,0.540881154977471,0.452842467751057,0.465691632007163,0.491814924251748,0.417554211664383,0.462105020002548,0.449860264606426,0.517515133857514
380,cane,12m,PC,0.598850929111475,0.529404895960674,0.535824270165558,0.444910423360199,0.438353936963379,0.4314858222495,0.503894461430516,0.562455123390653,0.614553729601254,0.529112282583006,0.563199651252338,0.539738644254641,0.453128789753085,0.466831071804979,0.492907994919426,0.418607871701701,0.462812617188124,0.449807397878284,0.51593110107638
390,cane,12m,PC,0.601366766308819,0.528126343419357,0.534231476058042,0.441074536546474,0.438852401723457,0.428971405876606,0.504262186004683,0.560932598466023,0.609962272187447,0.528142078148728,0.563854807822931,0.538563718430639,0.453034467267115,0.468023172903145,0.494216605562128,0.420798644597136,0.463389194123892,0.449103504145607,0.514412406147363
400,cane,12m,PC,0.60364937988948,0.5261581855286,0.532931586035609,0.437299134712105,0.439371976680191,0.426694307063479,0.503938526108032,0.56036337418945,0.605177086731297,0.526434965113748,0.565397614129525,0.537629168392032,0.452776084314193,0.469158679742641,0.495712233992797,0.423732403953543,0.463931071766446,0.448093993767277,0.513297650494075
410,cane,12m,PC,0.605494993308876,0.524111220272195,0.53291007332305,0.433681955018618,0.440165272234832,0.424684757020596,0.50267322203677,0.560420117468095,0.600648948596559,0.52355666654641,0.567768991525824,0.536847463949715,0.452179065648443,0.470244547352675,0.497051645159209,0.427274375428564,0.464793791353601,0.446996759075038,0.512411867202944
420,cane,12m,PC,0.606688622747806,0.522507450048716,0.533874212396113,0.430489160593247,0.441468568663101,0.422952186306809,0.500596432692424,0.5613440366953,0.595783025409543,0.519922389487077,0.570862028795257,0.536076566028307,0.451176635357041,0.47125356995154,0.497846323024734,0.431319494295942,0.466733232103339,0.445822942386264,0.511745682798389
430,cane,12m,PC,0.607063976133402,0.52128789336367,0.535785207842825,0.427620326300132,0.442829108305796,0.421534418391515,0.497754082362032,0.563056292837689,0.590743439013108,0.515724943353579,0.574584390705095,0.535115742029763,0.450641172908601,0.471978142661522,0.498490808700456,0.435879753675854,0.469915690215125,0.444656379521144,0.51123850836931
440,cane,12m,PC,0.607000112352418,0.520348850022627,0.538523988797215,0.424998972194898,0.444066176702624,0.421033309818092,0.494088656441241,0.565434865838976,0.585839648196355,0.511716050383187,0.578766441565736,0.534153514442053,0.45046339769345,0.472243571763693,0.498775584386786,0.441112879918489,0.473374379042264,0.444042947682013,0.51097815992408
450,cane,12m,PC,0.606443252119919,0.520044792993953,0.541993589489976,0.422571051131709,0.445076299506631,0.421370316236483,0.489545021814317,0.568366400488288,0.581122454723326,0.507851424049258,0.583143292033903,0.532973290264166,0.450807358936925,0.472065768987867,0.498765009462596,0.446579611281126,0.477207878991073,0.443403978955778,0.510950518943413
460,cane,12m,PC,0.605221363384806,0.520584213447561,0.546143867191127,0.420554922481785,0.44637161241671,0.422447820003819,0.484931408928597,0.571406588019614,0.576676147261288,0.503870908555362,0.587765157689183,0.532056943440812,0.451256178356028,0.471411700655462,0.498556560953827,0.452113572934832,0.48180576740078,0.443164766537217,0.511129472724062
470,cane,12m,PC,0.603450811095321,0.521786774457526,0.550886771733505,0.419219108143665,0.448067166257584,0.424197426220331,0.480899770996254,0.574392589394905,0.572588999472306,0.500122472504087,0.59268797515129,0.531600775250399,0.451328967996427,0.470153933242766,0.497828654346582,0.457641442819944,0.487320330241134,0.443554239835201,0.511752831124332
480,cane,12m,PC,0.601264164647815,0.523425108986051,0.556116644453796,0.418505986669285,0.449874050004048,0.426372677216248,0.477345643384355,0.577191345379522,0.56875661616543,0.49698194923168,0.597330368675362,0.531699422518765,0.450793518438777,0.468840393388152,0.496908048045173,0.463308312688146,0.493438225657362,0.44435154613141,0.512800168751226
490,cane,12m,PC,0.599159622079507,0.525027368644173,0.561734326825658,0.418020669151006,0.451859283615265,0.428736838219388,0.473842377548732,0.579894591104627,0.564924622351359,0.493985994560002,0.601445332144963,0.53229419056324,0.449407882684556,0.467784783956484,0.49596295241975,0.469830035461674,0.499965319282627,0.445765063790951,0.513975092472831
500,cane,12m,PC,0.597147476481027,0.526564750686904,0.567669467731219,0.417665098761765,0.454066641796928,0.43105669427315,0.470735305700586,0.582256043338042,0.561050569795287,0.490996078558002,0.604950028987839,0.533020788329788,0.447289919365645,0.466647264414594,0.494934969726095,0.476464686950751,0.506448993848272,0.447930012572429,0.515140951576083
510,cane,12m,PC,0.595204720179362,0.528087620363567,0.573910121696056,0.417482623038949,0.456300101155129,0.433553850111683,0.468305867439582,0.584320015198745,0.557184734433186,0.488368640225321,0.607493774301244,0.533549474142442,0.444441638272977,0.46554320749211,0.493866084421657,0.483025227527534,0.512374367991146,0.45066074334824,0.516684643826789
520,cane,12m,PC,0.593121587566573,0.529487931084123,0.580450994816193,0.41790952979655,0.458124052499687,0.436020420996922,0.466556889574672,0.586204857483076,0.552861288225634,0.486291325749311,0.608805855540546,0.533849872138873,0.441078010032156,0.464429049471182,0.492894698786404,0.489744437328802,0.517579472462104,0.453732388717446,0.518776258904054
530,cane,12m,PC,0.59094081610531,0.530676626307899,0.587170559394604,0.417784914591175,0.459543934507627,0.43819559662312,0.465357486267758,0.588177286710353,0.548187484336318,0.484980949302155,0.609166280409255,0.534123315179923,0.437662640316155,0.463379244438422,0.49167614149661,0.496620987401967,0.522178853593482,0.456851046588841,0.521040777771218
540,cane,12m,PC,0.588398359723013,0.531940134263983,0.593986763257544,0.41681804511634,0.460686211326138,0.439918996983271,0.465285567814451,0.589979503336464,0.544247386154198,0.484486535031531,0.608788974043585,0.534620644760962,0.434296477244913,0.462691969445736,0.49000192231461,0.503335189854237,0.526053361618588,0.459685832303252,0.523115372524986
550,cane,12m,PC,0.585719816512558,0.533329571544778,0.600917680030152,0.416218067748659,0.461768805341103,0.441092562814091,0.466176661045608,0.591612803887628,0.541239502894621,0.484594986480971,0.60760769169106,0.535211037414555,0.430825267430033,0.462046678394429,0.487580589905369,0.509632432425353,0.529191600485596,0.462322237093115,0.524962124235922
560,cane,12m,PC,0.583053385022261,0.534745805451528,0.607826881684856,0.41663214286178,0.46259917868655,0.441714316125863,0.466993160061891,0.593158084625814,0.538297450473146,0.485091506647876,0.605530372852009,0.536132563517379,0.427499093552102,0.461312041835347,0.485056892978904,0.514772459758005,0.531638896951928,0.464681699669302,0.526308951290549
570,cane,12m,PC,0.580460026755638,0.535788425465885,0.614595013896666,0.417066393671407,0.463075285362759,0.441753561268428,0.467550842079404,0.594534309691758,0.535443472167173,0.485879287780471,0.603038835236061,0.537408293671308,0.424626299380541,0.460353727271254,0.482823839866861,0.520253812794178,0.533725852530057,0.466488108250349,0.527198009990462
580,cane,12m,PC,0.577934168014835,0.53643324934061,0.621181058670977,0.417333656796276,0.463051268002696,0.441423303496274,0.468032496810175,0.595766792440792,0.532761826661124,0.486835742936671,0.600472305737529,0.538947200325648,0.422097451669346,0.459468945751973,0.480981681181218,0.52607597563726,0.535151356954351,0.467637246073093,0.527803683432803
590,cane,12m,PC,0.575468330946506,0.537159881555213,0.627512390234373,0.41727333414991,0.463130881682309,0.441114415157806,0.468511082226321,0.596914807256459,0.530282545046145,0.48760668343657,0.597836895017047,0.540549971770607,0.419599685592729,0.458201340807496,0.479976803876909,0.531695957875361,0.53643281504986,0.468331909300137,0.528146341837863
600,cane,12m,PC,0.573002711960731,0.537799130943108,0.633395155224788,0.416845493214982,0.463449630704963,0.440488219331776,0.469123709747143,0.597736655932764,0.52799429599283,0.488122671580365,0.595299746615976,0.542297380941579,0.416588360871115,0.45631980501526,0.480016479275312,0.537409074053908,0.537748457767464,0.468414038466504,0.528287391080667
610,cane,12m,PC,0.570666359826713,0.538270045392657,0.638487322997622,0.416129368308571,0.463859041420876,0.439866287432309,0.469759224911758,0.598399952450185,0.525891712410223,0.488389406368882,0.592832486350391,0.544237277485272,0.413154489162651,0.454017699142833,0.480449337867072,0.543135613568872,0.539338177822018,0.468040699125833,0.528167028121884
620,cane,12m,PC,0.568678647633249,0.538468563350313,0.642478288008401,0.415428222373936,0.464105977733805,0.43944438524661,0.470048292739509,0.599466335527381,0.523868108822397,0.488803758900115,0.590301522872947,0.546335528959982,0.410343367714321,0.45116880296985,0.481308760684963,0.548790091761332,0.541146733250276,0.468124419354581,0.527619269811078
630,cane,12m,PC,0.56704250078104,0.538519623216854,0.645658083409176,0.41461246364144,0.46453539859816,0.439320926174271,0.469466273893818,0.601060219904522,0.521711951875767,0.489279707540807,0.587715296949794,0.548717749374624,0.409245453184412,0.448180157685505,0.482475602941346,0.554475387494577,0.542905435119275,0.469105290846443,0.527860617203294
640,cane,12m,PC,0.565830296902877,0.538379923226425,0.648068808885596,0.413523067855462,0.465153670081182,0.43932458191645,0.467810562972146,0.603000058206082,0.519607071241711,0.490015218201058,0.58514906366871,0.551229516622599,0.40973995674536,0.445371222784502,0.483755992607884,0.560174130747376,0.544266815317368,0.470252113127166,0.528242307919352
650,cane,12m,PC,0.564968333253097,0.538178381068513,0.648989148805849,0.412420588271672,0.465713597789585,0.43959686829491,0.465220449515954,0.604981920182191,0.517193652362828,0.491221875292417,0.582634246285578,0.554006333543762,0.411180077583055,0.443283764817612,0.485302448863588,0.565578902182977,0.545296611785881,0.47156379625881,0.528433353375065
660,cane,12m,PC,0.564266198351398,0.537959918271107,0.648487391330618,0.411932995941529,0.465819456072676,0.43999602704011,0.462274435500243,0.606751227540474,0.514781586834147,0.492604763483207,0.580180813154013,0.556615829797575,0.413187601316598,0.441962983140516,0.48732502242741,0.570569743557572,0.545580051295006,0.473072474456703,0.528814836916518
670,cane,12m,PC,0.56343021466302,0.537869302766885,0.647472994002679,0.412251797167704,0.465495933669174,0.440512662051949,0.45900964617542,0.608828598188249,0.512303026324472,0.493872090392475,0.578070433230943,0.558699841115561,0.415854732065025,0.441247196766191,0.489842130743943,0.57508151891154,0.545289785056945,0.47476308998433,0.529607524212386
680,cane,12m,PC,0.562479241451582,0.538077612840904,0.645758371203515,0.413075343066986,0.464776760124103,0.441143133549564,0.454487671519045,0.610721202561868,0.509781029463872,0.495175981955855,0.575965831028994,0.560378653815955,0.419316290598947,0.441150284476621,0.492784796170947,0.579006912852677,0.544707478042297,0.476608498450565,0.53067613657308
690,cane,12m,PC,0.561548938281382,0.53885424949114,0.643089383960267,0.413354026347952,0.464189254068864,0.44196552122513,0.449892069476469,0.612133864944209,0.507242501225373,0.496074412357743,0.573692473872166,0.561637947040367,0.42316443418879,0.441330531936364,0.496205738108661,0.58239118676994,0.544119160002787,0.478449931238569,0.531989267764622
700,cane,12m,PC,0.560641441217612,0.540505754953877,0.639516657457941,0.413841130972605,0.464009710173393,0.442220468064009,0.444828988914182,0.613349008550624,0.505005112011763,0.496675144232536,0.571914844670998,0.562292368379007,0.427216633245381,0.442089507973939,0.499813951254863,0.58491990031005,0.543815256724511,0.480084610449125,0.53331118751199
710,cane,12m,PC,0.55960808547634,0.542718086030706,0.634668861745745,0.414491944393181,0.464233247326318,0.442208666834812,0.4387091054712,0.614569752783101,0.50342501141624,0.498000328433017,0.570842143079081,0.562201824381677,0.431211281596948,0.443256684317949,0.503275443876799,0.587255512765067,0.543735555554438,0.481455323166028,0.53448803246375
720,cane,12m,PC,0.558542021820535,0.544659787208456,0.628738911284528,0.415520208654633,0.464673948891737,0.442141853584395,0.432492452293429,0.615476058133418,0.502486004991781,0.499677017385358,0.570721868029017,0.561666300974228,0.435021006403924,0.444804649954576,0.50702238284101,0.588857580558337,0.543567197536473,0.482581105691736,0.535538355562472
730,cane,12m,PC,0.557636795911504,0.546008215838781,0.622029302267514,0.416755064799047,0.465441575931345,0.441889874937357,0.426789898142312,0.616069472156931,0.502106007759573,0.50161763502332,0.571590689081876,0.560833280137193,0.438838230617295,0.446744972306875,0.5107552574334,0.589719441516225,0.542736360047743,0.483560119333081,0.536565905265751
740,cane,12m,PC,0.556669702024427,0.546917157208281,0.614572781615786,0.418097283334547,0.466640820357759,0.44158096123318,0.421250848815191,0.616595305454831,0.502156914709985,0.503895262069968,0.573294729892979,0.559944116114303,0.44302572837707,0.449005053355493,0.514266763263553,0.590086905651443,0.541333211856699,0.484571014033234,0.537846673353108
750,cane,12m,PC,0.555763267143937,0.54745565503746,0.606729540594562,0.419157763469623,0.468413653413333,0.441330920378909,0.415924601359822,0.616704806904099,0.502551212504384,0.506861914404145,0.576017012697193,0.558949611792594,0.448713809420994,0.45124636368926,0.517709388294089,0.590092179525958,0.539441886860331,0.485488321375339,0.540153122053863
760,cane,12m,PC,0.555017861733297,0.547498460396976,0.598490045144987,0.420656798727197,0.470557600270598,0.441516490102774,0.410795388455805,0.616395362330725,0.503407555140389,0.510289418790116,0.579849577951061,0.557605983526384,0.455059437668841,0.453328203817603,0.520776378534714,0.589846995872227,0.537198028989389,0.485913739801746,0.542589902842566
770,cane,12m,PC,0.554836981425552,0.547177586763839,0.589778833010385,0.423222266617265,0.473092351764716,0.442547272927279,0.405866902786689,0.615845849998706,0.504732125066309,0.513927075551725,0.584432852238497,0.555951218518214,0.461630819887157,0.454922487342002,0.523665978071798,0.58935876306321,0.534227958917468,0.486362588029682,0.544983015012655
780,cane,12m,PC,0.554584477513898,0.54615786084015,0.580546551343195,0.426055044270741,0.47638505617309,0.444410831909799,0.401078769256792,0.61526245851073,0.506461232190948,0.517763744474078,0.589976962199113,0.554225543079097,0.468456091180204,0.456369072526267,0.526400397225557,0.588573427600799,0.530765280757725,0.487134757873428,0.547456611076607
790,cane,12m,PC,0.55407140752576,0.544289020340373,0.570727655719949,0.428965837519724,0.480304252497106,0.446956271453457,0.396387668635307,0.614711346938076,0.508306521719434,0.521650585391552,0.595809407705872,0.55290063049553,0.475494843237141,0.45769895177841,0.529180421005014,0.587374687536966,0.527183405081395,0.487960802101157,0.550213886897079
800,cane,12m,PC,0.553499954451755,0.541269909234793,0.560230021345455,0.432035371660539,0.483981610794309,0.449391550147838,0.393399371429614,0.614570324775711,0.510009235900457,0.525670846955426,0.601514419030361,0.551804532939508,0.482599707584903,0.45920804314173,0.532139771821203,0.585345471650206,0.523495725004091,0.488660965953789,0.553049841567089
810,cane,12m,PC,0.552547909099051,0.537836871272675,0.549110402155892,0.43621959519132,0.487687714966317,0.451628977817715,0.39159272302421,0.614578055009048,0.511814374264697,0.529855762091222,0.606712403772112,0.550863130447491,0.489846231328927,0.46058422905131,0.534888399753004,0.583978232258094,0.520003731398077,0.488752966272974,0.555992486615255
820,cane,12m,PC,0.551333469756092,0.534127599576335,0.537956386992964,0.441150252228048,0.491161402701278,0.453686286364467,0.390940085111897,0.614273907866997,0.513647331138283,0.533878622530694,0.611083876484514,0.550008151404288,0.49689422624759,0.461982027815533,0.537566252487154,0.582007337415069,0.517342910352726,0.48799866967304,0.558490049507907
830,cane,12m,PC,0.550078044485521,0.530313756486635,0.527231421082751,0.445521302050341,0.494294832806599,0.455514466929557,0.391191001887988,0.61365170879619,0.515489649477763,0.537816486616508,0.614689622204534,0.548972261842705,0.503213503453134,0.463044040328091,0.540322277032562,0.579514797806981,0.515447620529798,0.486485529914898,0.56075173239092
840,cane,12m,PC,0.549138691811015,0.526610562046306,0.51710741272895,0.448932794987029,0.497461338581792,0.456815818468204,0.392292928367745,0.612971774604412,0.517506716689402,0.541513329886046,0.61759350076015,0.547849610345924,0.508574485521761,0.463692121533311,0.543052823104305,0.576847116492095,0.513550994032994,0.4843422217857,0.563101266542324
850,cane,12m,PC,0.548425545445985,0.523207496173847,0.507385329611505,0.451516967338328,0.499941307386309,0.457578543303105,0.394800408165896,0.61210794968051,0.519859725038163,0.545242486729694,0.619585540883587,0.546749316287203,0.513391177485843,0.464177707673637,0.545502146397463,0.573550942416689,0.511992275026805,0.481925910915584,0.566059315187375
860,cane,12m,PC,0.547908329524294,0.520288011679381,0.498599520085099,0.453240152839052,0.500736628672517,0.458312449620692,0.398267723420095,0.610716058311869,0.52250152953136,0.548950247808602,0.620666592360719,0.545855299546599,0.517657932757619,0.464621489401312,0.547760702051941,0.570239884538195,0.511383227670644,0.479068669727438,0.568813190871645
870,cane,12m,PC,0.547726473016479,0.518143315902204,0.490623384763717,0.454123182331546,0.500160729664895,0.459219438729745,0.402575911271124,0.609189915673867,0.525176991651343,0.552383071135612,0.621364879216432,0.545143830552507,0.521087290902338,0.464739447294853,0.549812627514678,0.567639788242571,0.511279503657795,0.475589764457266,0.571590967173102
880,cane,12m,PC,0.547653381735958,0.517064017335959,0.482992157602535,0.454244582126739,0.498023098139446,0.460272666742341,0.407272302126213,0.607874237955965,0.527806183077387,0.556381280310715,0.621618560493315,0.544668004004723,0.523517649701066,0.464833641520888,0.551648037407947,0.565382838990265,0.511611522936947,0.471765194117424,0.573956023984191
890,cane,12m,PC,0.547399244642139,0.516780913432946,0.474552603692043,0.453859271939165,0.495075561767274,0.461400002154604,0.411562928106632,0.606852752317291,0.530577674578356,0.559785079800984,0.621819823725105,0.544041803179243,0.524877494206951,0.464954064290526,0.553790865294947,0.563161820582435,0.512326177003666,0.467624073082469,0.575896015636961
900,cane,12m,PC,0.547036829605752,0.516785965072882,0.4662169711648,0.453719441087081,0.491807227811435,0.462580986918926,0.415001517453431,0.605945241376026,0.533514453656811,0.562004446334471,0.622490646903653,0.543195495063596,0.525400246482751,0.465325998070692,0.556496376950013,0.560713434289806,0.51312449580577,0.463222404807019,0.577899290878363
910,cane,12m,PC,0.546356857632735,0.516841386817941,0.458288334436364,0.454039836774816,0.489146708621433,0.463980892892515,0.417393851152812,0.60549275095691,0.536551870351777,0.563315747607129,0.623974643763051,0.542282210195275,0.525408573997745,0.465773501177053,0.559900493983504,0.557478051854493,0.514198674812567,0.458422130011841,0.579329591377549
920,cane,12m,PC,0.545378628232264,0.516918175433961,0.450573119689701,0.454270569501692,0.486943259137257,0.465684176793383,0.418403285688056,0.605412873094617,0.539901485046916,0.563627913208181,0.625629078783274,0.541577794994409,0.525333015691532,0.466419329110462,0.563797371210167,0.553268304716489,0.5155045882961,0.453924721102554,0.580299400210803
930,cane,12m,PC,0.544299708370973,0.517318807507687,0.443310539237098,0.453381064825091,0.485321093099915,0.467870612251374,0.417665413056906,0.605462759324617,0.543737003664132,0.562722839234203,0.627145206367427,0.540891434684713,0.525015055381896,0.467421987683879,0.567905893872074,0.549141665087688,0.516743408312734,0.44982081820813,0.580966313327814
940,cane,12m,PC,0.543026927200104,0.517762815168295,0.436702684823629,0.451385459781521,0.484403054412299,0.470048526720293,0.416060617840822,0.605316372521211,0.547671321880099,0.561274666163456,0.628169741066575,0.540250740115546,0.524385083811953,0.468637403621331,0.571980203161041,0.544620764004877,0.517699981077213,0.446298018384105,0.580700782453193
950,cane,12m,PC,0.541647879000105,0.5178703859627,0.430633941290528,0.448639973420879,0.483544486271344,0.472349017369246,0.41492724389953,0.605093552379694,0.551147594099349,0.560080578643856,0.628771120678837,0.53966555462105,0.523820466039023,0.469790523456476,0.575799565684198,0.539615676843429,0.518564396086603,0.443153217470216,0.579427314350936
960,cane,12m,PC,0.540117175891033,0.518036416845884,0.425053267768113,0.445551576010992,0.482452276765662,0.474862927626535,0.414080401231462,0.604986670561242,0.554733170069033,0.558925128261299,0.628908140887298,0.538899660308327,0.523505485163583,0.470717802517319,0.578949434959361,0.534567483859815,0.519373942470642,0.440284596922624,0.57706791725807
970,cane,12m,PC,0.53840436019149,0.517929206469804,0.419635463734312,0.442129300376056,0.481029723946273,0.47754347731421,0.413351545469527,0.605089417691711,0.558315448986992,0.557469333056377,0.62875373220013,0.538597928231076,0.523283407635851,0.471564842656765,0.580998906706029,0.529100947005899,0.520246592875025,0.437785632370754,0.5738839506534
980,cane,12m,PC,0.536343540005234,0.51748182180872,0.414968761734442,0.438528137362407,0.479354417542174,0.480872437026029,0.412907955765725,0.604834915591554,0.561184569466982,0.555565763220047,0.628262273251881,0.538545704231833,0.523380717819842,0.472538178103153,0.582424598552901,0.523282865068593,0.520820045319365,0.435047016043588,0.569430765772082
990,cane,12m,PC,0.534280371824573,0.517030753536317,0.410983731783753,0.435203268984935,0.477471437064899,0.484804140295976,0.41277514614902,0.604583736423853,0.563421479202413,0.553658135893205,0.627399295503159,0.538380750846827,0.523804575266664,0.473519075630283,0.583773203810239,0.517370678846694,0.52063999502299,0.432538984318342,0.564300717112681
-1000,grasp,12m,PC,0.563651554963342,0.436905332891788,0.567087045542837,0.529526917968735,0.470727129631977,0.460661388772422,0.454430241079745,0.541259431624579,0.556489913473808,0.450661314561822,0.570087543253495,0.483993006322459,0.445263041536732,0.518732950652218,0.550593230110165,0.612027027572709,0.531815926968803,0.476996556522205,0.642015408185849
-990,grasp,12m,PC,0.567806773741509,0.435223487734529,0.570469990220662,0.533737520838639,0.472473859362374,0.461234995669155,0.458469982392402,0.540198399126226,0.55362016410816,0.448871565039539,0.567453170700165,0.480161437594752,0.444146024232088,0.518612382527679,0.548042276018129,0.615495034836745,0.53037554720064,0.476672349922153,0.641202481235278
-980,grasp,12m,PC,0.572000471420063,0.434043143299823,0.573667124188492,0.537840778741654,0.473846552426425,0.461200301322568,0.462986498655531,0.539188617669035,0.550273938856935,0.447119574734136,0.56482070687915,0.476317533892773,0.443100292843842,0.518811013403756,0.545190908685086,0.619425592269732,0.529295129507108,0.476393796555654,0.639075796392845
-970,grasp,12m,PC,0.576364380449717,0.433711355562118,0.57654057311139,0.54143010213225,0.474630320938702,0.461082841368748,0.468343976532376,0.538237612992586,0.546886904090712,0.44567748984905,0.562163718064097,0.472945887999754,0.442234548643987,0.51942449656715,0.541769608081511,0.623739609650679,0.527967552293924,0.476186891854058,0.636325127161804
-960,grasp,12m,PC,0.580959606489547,0.433891318380827,0.57901904704708,0.544516760572406,0.474988122117299,0.460551960516953,0.474290565436496,0.537445308177058,0.543293218785112,0.444919186958994,0.559381643957136,0.470024514612451,0.441291540965959,0.520459394723403,0.537971493710035,0.628021764789073,0.527092391143262,0.476249148162514,0.633399517713926
-950,grasp,12m,PC,0.585739403822925,0.434252138733218,0.581124164367908,0.547007128247638,0.474947248011652,0.45939995051052,0.481717800885192,0.536971610023105,0.538906961359945,0.445022763806895,0.556785677115613,0.467762782433814,0.440360979047188,0.521750180736026,0.533986276134336,0.631883371530262,0.526480475616369,0.476399756046704,0.62996874938621
-940,grasp,12m,PC,0.590653398389626,0.434732660856319,0.582859024275967,0.549420138607614,0.475163253184207,0.457796131581822,0.491093567021319,0.536124739759573,0.534164877373396,0.445917868487345,0.55481664442538,0.466159929114968,0.439586591997303,0.523277857456516,0.530010233613639,0.634945248457892,0.525803580189014,0.476299932068595,0.625756880451572
-930,grasp,12m,PC,0.595661164256256,0.43539937062727,0.584080974325439,0.551651056202848,0.475360212631023,0.455972757711145,0.500891171712459,0.535030927939314,0.529265794784823,0.447645265330757,0.554433043293583,0.464894215322786,0.439136389482734,0.524674332876452,0.526394613206343,0.635898305307051,0.525581020803356,0.476036532271852,0.621863421301735
-920,grasp,12m,PC,0.600745640987294,0.435987082461658,0.584355805318964,0.554052652887811,0.475753683659482,0.453938595053482,0.511030330497942,0.533994507526223,0.524353786396818,0.45017157133766,0.555242299706169,0.464235221197706,0.438805639469269,0.52593221209047,0.523351908540423,0.6350760680002,0.525356852479138,0.475229578964284,0.618482401927206
-910,grasp,12m,PC,0.605803612218133,0.436769934070705,0.58369283273883,0.556547331583484,0.475881154498897,0.451905435178025,0.520358248450958,0.533285788002735,0.519459998289584,0.45329127963786,0.556421737092678,0.464173840348347,0.438931520713946,0.526887893679283,0.520863586040259,0.633339938395137,0.524821240084558,0.473754410341233,0.615532256734351
-900,grasp,12m,PC,0.610812222180619,0.437963451599749,0.581921834220798,0.558680833092163,0.47581425462733,0.450343061869421,0.528552451538399,0.532439460633841,0.51454959800681,0.456603254068224,0.557831703287647,0.464468530813405,0.439629335173143,0.527773961657031,0.518507909770755,0.630837367728823,0.524405863000098,0.471816044797514,0.613024009475756
-890,grasp,12m,PC,0.615560803873562,0.439403623792778,0.579048946064952,0.560618391186563,0.475371597174032,0.449312544762173,0.536022497869573,0.531241631306808,0.509563453120462,0.460464593707241,0.559608269861773,0.464995844394107,0.441350707364417,0.528429653264504,0.51647565153046,0.627808740657531,0.524318463814457,0.469710359630955,0.610914100127164
-880,grasp,12m,PC,0.61996021303823,0.440923058533309,0.575214777336913,0.563111826540474,0.474525840352638,0.448685282715592,0.542819433013539,0.52960530179131,0.504558709327851,0.464950467224724,0.560921311910212,0.465833888509961,0.443544016281633,0.528913458409199,0.51478085610591,0.624738879196826,0.524586639720694,0.467709826988408,0.609290695437916
-870,grasp,12m,PC,0.62409078785329,0.442491610393627,0.570842105948452,0.56619383057984,0.473392711547924,0.449061824809639,0.548849751553231,0.52730780914766,0.499516820261113,0.469935552247207,0.561261879515556,0.466929506858934,0.446160188119405,0.529180775392668,0.513700095468213,0.622070508499798,0.52487441138378,0.466059333520312,0.608212193756566
-860,grasp,12m,PC,0.627948583720451,0.443955518686435,0.566626376261074,0.569727033990585,0.472041184134163,0.449773447541779,0.554155112247187,0.524724439781702,0.494373017700332,0.475103522964405,0.560777492648788,0.468075127931658,0.449728044816577,0.528976922816405,0.513331333164266,0.619574116561792,0.525026732331072,0.464807135251492,0.607663412047181
-850,grasp,12m,PC,0.631533209986803,0.445393998180425,0.56249605135416,0.573652356489047,0.470437734563794,0.450587071218054,0.558550189559968,0.522237352621639,0.488971140616553,0.480555984636254,0.559788654481635,0.469310999414962,0.454067848616378,0.528929702429071,0.513378827616316,0.61695888792068,0.524955903855515,0.463663376866888,0.607615607129947
-840,grasp,12m,PC,0.635027631578505,0.446625584492707,0.558570631153776,0.578150783569689,0.468732128335598,0.451514563037122,0.561678289229109,0.519393853645955,0.484042204388971,0.486276792720028,0.55833910004665,0.470386495935508,0.458378051296564,0.529028379029667,0.513701305259336,0.613221621211771,0.524995255024633,0.46239229763932,0.607693124483462
-830,grasp,12m,PC,0.638594582803984,0.447489537820944,0.554753111639909,0.583339191562701,0.467106443618818,0.452652561034891,0.563507671986992,0.515934158810638,0.47983496893959,0.492095657459437,0.556486289643807,0.471611782708134,0.462653819972849,0.529104422550169,0.513907127666553,0.608835088791292,0.524307528713914,0.461106153557129,0.607781303592135
-820,grasp,12m,PC,0.641834846329007,0.447970117050435,0.551364929200424,0.58919626709177,0.465462761963921,0.453767060200262,0.563856855583179,0.5121932017908,0.47680894999475,0.497871029180413,0.55413579706277,0.472818088359812,0.466854889884271,0.529183476003257,0.513779876587418,0.604740126661166,0.523973248340199,0.45984395624214,0.607662349957906
-810,grasp,12m,PC,0.644789080894677,0.448175730335295,0.548555824278444,0.595469420547452,0.463803813279604,0.454928245681413,0.563252591941675,0.508454165643547,0.474501764944223,0.503324944388869,0.551013167076342,0.473882274663195,0.470564117969786,0.529469886266686,0.513258971179068,0.600517988082479,0.523490012344958,0.458513342006093,0.607628999457146
-800,grasp,12m,PC,0.647498530337337,0.448237346869868,0.546114816019983,0.601802409909846,0.462596344459644,0.45617768105157,0.561541328595557,0.50511065580634,0.472709920419305,0.508283114131009,0.546881717687717,0.474824915755465,0.473784606782806,0.530005663870409,0.512306878927964,0.596467863153446,0.522995110188994,0.457116215220607,0.607608873795708
-790,grasp,12m,PC,0.650030927075227,0.447790908454246,0.543811741653094,0.608384476722051,0.461846321387574,0.457230897929328,0.559374858651585,0.502197400358812,0.471308529579954,0.513217022532092,0.542527507359421,0.475736589932537,0.476754918000638,0.53067652724136,0.510673908330939,0.593072057710273,0.523087287496367,0.455744693864947,0.6075578952964
-780,grasp,12m,PC,0.652380584021567,0.447201190580438,0.541139866129247,0.615038074014875,0.461501751450205,0.458471568094312,0.557191904767093,0.499592210210311,0.470316819898168,0.518132719794239,0.53822923004549,0.476718418788959,0.479872794543687,0.531458418167446,0.508745079767513,0.589955407889336,0.523426879621185,0.454705267783174,0.607190104761645
-770,grasp,12m,PC,0.654481682168702,0.44670582225899,0.538207120489708,0.621572867479062,0.461892849367019,0.460210571033501,0.555776708361418,0.497319529610691,0.469991096197287,0.522979543901471,0.533960856449399,0.478194290695588,0.483392057769331,0.532415213640099,0.506690680106745,0.586713724341144,0.523904104626007,0.454127716890266,0.606002635831874
-760,grasp,12m,PC,0.656395804245793,0.446286825348004,0.534879558489274,0.627855862238554,0.462967248815416,0.462444118605436,0.555204283580289,0.495606270120598,0.470119568231737,0.527357883486294,0.529618250620496,0.480038124861818,0.487262511935141,0.533380966146873,0.505039123861513,0.583625792364179,0.524632014551278,0.453994239369516,0.604285867583954
-750,grasp,12m,PC,0.658091944072073,0.445904272843208,0.531392505419511,0.633686589701839,0.464678281811901,0.46493778365041,0.555470292462455,0.494717494394448,0.470925483787358,0.531444812059459,0.525305191050081,0.481631919866502,0.491389304114424,0.534366146889838,0.503994557722811,0.58073549439445,0.526067122301042,0.45444971106075,0.602065246867285
-740,grasp,12m,PC,0.659786685869152,0.445734480217319,0.527845944126144,0.638882035762582,0.466854533023953,0.467605444952593,0.556609544555026,0.494360531111737,0.472278935221947,0.535046609966789,0.52076828500683,0.482981490631819,0.495751527718818,0.535465682620877,0.503383594518108,0.577973650084824,0.528291310239693,0.45531197107667,0.59931282083493
-730,grasp,12m,PC,0.661470927096646,0.445652329716011,0.524210038148185,0.643294752568176,0.469356348357247,0.470337751992187,0.558365998598473,0.494311061508841,0.474220772608804,0.538376087469493,0.515752807679271,0.484297730896801,0.500437649331279,0.536413209793792,0.503181897804445,0.57547837164159,0.531157406984423,0.456285715982819,0.595732355837274
-720,grasp,12m,PC,0.66300445237659,0.445962956661373,0.520482818629276,0.646668827110628,0.472049569415569,0.473777154523286,0.560290644851412,0.494258616515178,0.476597459039073,0.541789712067555,0.51027675955976,0.48590897319932,0.504828821466869,0.537195878697534,0.503227889950784,0.573336647930847,0.534547066601381,0.45753493687941,0.591356637466574
-710,grasp,12m,PC,0.66419803729633,0.446481150923559,0.516791692763291,0.649098306805307,0.47465572864062,0.477312601128557,0.561319951263928,0.493965738368537,0.479569020350587,0.544957365096529,0.504532485169386,0.487855511218269,0.509359986270189,0.53794579082531,0.503741723780154,0.571628662032986,0.538583362487035,0.459239737532261,0.586327121916449
-700,grasp,12m,PC,0.665296306395834,0.447064038841603,0.513716982945427,0.650966083245875,0.476953545816673,0.480231694276935,0.562116110402896,0.493942635809184,0.483116931006205,0.547806578198897,0.498806362005672,0.490038055514692,0.513481685938041,0.538526815009218,0.505081088563391,0.570609842832778,0.542924191256854,0.461103833865693,0.580412429539192
-690,grasp,12m,PC,0.666358290227156,0.447605878310615,0.51186423979553,0.652450498673247,0.479174802186291,0.482782578713472,0.562916572279936,0.494426561003826,0.486931016552032,0.550636050140947,0.493153492821403,0.492398875660415,0.517194609464332,0.538861626695069,0.506370805299926,0.570926112471322,0.547648939685799,0.463036313675939,0.573977621394135
-680,grasp,12m,PC,0.667250988681999,0.448116072723935,0.510902245163975,0.653515302313909,0.48120814030794,0.485131077117958,0.563703719845642,0.495115643548035,0.490808694465476,0.553418903612892,0.487892712641307,0.494831629563551,0.520607938825006,0.538938290199071,0.507916142083704,0.572244652319619,0.552453214058646,0.465143194862465,0.567236568539185
-670,grasp,12m,PC,0.668030093951308,0.449122920124888,0.511858543734779,0.654237007612629,0.483058400072715,0.486731456023098,0.564268426839779,0.496043796452139,0.494995999265507,0.555714060441713,0.483211594018525,0.497088092488079,0.523710282197579,0.53907840656173,0.510018917325009,0.574048529006566,0.556778659645802,0.467105364244064,0.560383257857982
-660,grasp,12m,PC,0.668706032360565,0.450593067411194,0.513669724945392,0.65483895739388,0.484473376112728,0.487997837856552,0.56433985349425,0.497348253735752,0.499632621634323,0.557580943673341,0.479101089781601,0.499238843916908,0.526411903733317,0.539539860182153,0.512583668399118,0.576164914012541,0.560698477939601,0.468905074128897,0.553657688449265
-650,grasp,12m,PC,0.669166488728142,0.45260540759783,0.515484828745658,0.655616516969604,0.485161875146621,0.488784938802332,0.563698469390159,0.498664391181936,0.504442412980522,0.558815499261568,0.475496053272836,0.501058491700982,0.528874711810775,0.539975418079297,0.51554585456934,0.578035309003354,0.564349874600703,0.470513138267477,0.54690934083981
-640,grasp,12m,PC,0.669526248145812,0.454907170465939,0.516630684527308,0.656467087664587,0.48500493783929,0.489399892749256,0.562248844415683,0.499681536898729,0.509223179036245,0.559701121218887,0.472377198273399,0.502546588465215,0.531453891730731,0.540451656977231,0.518859560733524,0.579450483624889,0.567667077357614,0.472176390300662,0.54010423420165
-630,grasp,12m,PC,0.669742734354226,0.457600906522923,0.517365273061098,0.657227558029943,0.484000915452008,0.489850748338239,0.559929792716604,0.500558239963423,0.514144378748747,0.560499850870685,0.469983344496031,0.503802066999294,0.534170359510575,0.541032015934097,0.522309686686291,0.580609841052756,0.570121137733734,0.473764545238189,0.533400041967123
-620,grasp,12m,PC,0.669859204242113,0.460641348456982,0.517985121387412,0.657870927077642,0.482483855605643,0.489819656194682,0.556248726731874,0.501381621376546,0.519370415657927,0.561585240831697,0.468272588905243,0.504848698642555,0.536279302351416,0.541798503635,0.526058654870064,0.581132901581931,0.571957834832957,0.475523834803355,0.526884854609166
-610,grasp,12m,PC,0.669764904180606,0.463857627316603,0.518694074617025,0.658524211693023,0.480789177934803,0.488975079442933,0.551855430410223,0.501980064320584,0.52505366392738,0.562712923580929,0.467177717800396,0.505534452586313,0.537910047362879,0.542926436840498,0.530091376527769,0.582030641311816,0.573201648579053,0.47794738134727,0.520568734207787
-600,grasp,12m,PC,0.668969459506672,0.467354605015802,0.519112802387786,0.6591054257592,0.478686339318917,0.487471601816533,0.547102015515329,0.502268461728054,0.530873246209958,0.563941310914611,0.466725096203781,0.505950275889055,0.539304196583299,0.544178517818889,0.534229968798982,0.582611443721168,0.573832907980895,0.48088301624847,0.514408415154753
-590,grasp,12m,PC,0.667765522472922,0.471102711821339,0.519589736253715,0.65935291758465,0.476118810264929,0.485584848639675,0.542273451092376,0.5023325432913,0.536862882332238,0.565081676290218,0.466784956594803,0.50632751045069,0.541055459232102,0.545283846559202,0.538253376060584,0.582000038125556,0.573969922541989,0.483670752152597,0.508397057291157
-580,grasp,12m,PC,0.666149884915193,0.475200145819089,0.519753956372854,0.659437062513343,0.473522082866319,0.483436750329759,0.537169257596118,0.501995309591738,0.543068929653093,0.56595850588615,0.467110658505799,0.506934010237019,0.542575069357168,0.545834000651473,0.542046729222084,0.580705981392206,0.573968479602093,0.486337333324555,0.502607189357301
-570,grasp,12m,PC,0.664013419164671,0.479587863144152,0.520098027934686,0.659379269193429,0.471064539469233,0.48118793689669,0.531611114470284,0.501452786335565,0.549942636427044,0.566844182115249,0.467839005949578,0.507679369075932,0.544174698727878,0.545907590981816,0.545429092176501,0.578294484433417,0.573992127062523,0.489108197734102,0.496947502098373
-560,grasp,12m,PC,0.661302847873899,0.484030471952843,0.52055062259156,0.659101788522927,0.468782086652586,0.479406052653216,0.525969636948146,0.500262488408841,0.556549769604313,0.56794298982597,0.468880577397275,0.508600022716628,0.545870745949456,0.54583893518017,0.54818565079059,0.574227462921899,0.573691808802105,0.491505278846317,0.491490013183174
-550,grasp,12m,PC,0.658184444063647,0.487883156750368,0.520729392229942,0.658621840197462,0.46669351800993,0.477949901922686,0.520494094781103,0.498720494913983,0.562674649710154,0.568955683430952,0.470565739324068,0.509561048251876,0.547250577048406,0.545513495185943,0.550067602608133,0.569418693252019,0.573389008129978,0.49347094696365,0.486146017613258
-540,grasp,12m,PC,0.654719207301504,0.491204492814313,0.520573842663933,0.658174071385074,0.464832814464484,0.476402390424836,0.51583590849718,0.497299622512888,0.56844992857954,0.569590372865722,0.473585689945519,0.510770663714971,0.548216573274898,0.54442526241113,0.550998630000134,0.564492979103878,0.573035473715285,0.494868349794801,0.481263374525201
-530,grasp,12m,PC,0.650775326598131,0.494149546438558,0.520402381681677,0.657487188778721,0.463086277818837,0.475288423913408,0.512033247293148,0.495867152641478,0.573897744773313,0.569826424271104,0.476668771462485,0.512343115108442,0.548720360018073,0.542727067850003,0.551400156289722,0.559604928575304,0.571534858633887,0.495894498112143,0.476345320422265
-520,grasp,12m,PC,0.64644319847262,0.496542233067261,0.520290104570798,0.656226444062885,0.461403947191965,0.475109669765706,0.509387422042382,0.494235389875258,0.578657602300224,0.569660749893953,0.479695286642498,0.514235937763215,0.549109409432732,0.540767517061066,0.551135544257685,0.554977875268651,0.570069896251945,0.496877476294197,0.471816512190537
-510,grasp,12m,PC,0.641840576400933,0.49855083473177,0.520227544520683,0.654629681004308,0.460242814878635,0.475818580158719,0.507772591921359,0.492413852153602,0.582912449127169,0.569157839174223,0.482491389128975,0.516339434012059,0.549116147291629,0.538399944538082,0.5502957162064,0.550818655686012,0.568858570690384,0.497765077621336,0.467804527953193
-500,grasp,12m,PC,0.637104667656167,0.500263155769757,0.519752775184537,0.652641855539124,0.459625462139504,0.476698756824256,0.506441824372358,0.490496030644045,0.586851410413817,0.568365419754706,0.484417004816425,0.518421412765679,0.548402271908301,0.535680450417652,0.549099123964618,0.547155254730673,0.56825608539638,0.498444076608955,0.464196116882885
-490,grasp,12m,PC,0.632207368098558,0.501556891050084,0.518867025264153,0.650273185557344,0.459196465320532,0.478113813382623,0.504361137877107,0.488222769048201,0.590518491771815,0.56734123326736,0.485572180465076,0.520504289255304,0.547141979280478,0.532898442564387,0.5473093429811,0.543364739209568,0.568422084706129,0.499017004529989,0.4612274609693
-480,grasp,12m,PC,0.627204841815845,0.502502764300742,0.517598215758006,0.647664254244184,0.458903281970095,0.480541921559217,0.50264879023716,0.485655272785811,0.593987229861368,0.565947813043527,0.486706413964553,0.522599238439048,0.546141641734068,0.530158087423928,0.545184201409321,0.538747836924224,0.569017817867454,0.499403510613884,0.458285925409062
-470,grasp,12m,PC,0.62265972430813,0.503375733431156,0.516131880796944,0.644829656051391,0.458456819744395,0.483304760064668,0.501828963100313,0.483240160174651,0.597666078626957,0.564186418651792,0.487589717442344,0.524770024878117,0.545409155787906,0.527810580013618,0.542827769893232,0.532900409906519,0.569884042531364,0.49918241436094,0.454825583705745
-460,grasp,12m,PC,0.618655237484939,0.504031755720844,0.51447440762554,0.641717345070954,0.457593992675774,0.486593735408077,0.501808359386436,0.480656968206218,0.601469262031071,0.561786718075279,0.487583477590584,0.527093441530608,0.544805675594121,0.525916661668845,0.540883217119909,0.526594199420533,0.570879277723686,0.498392360901942,0.451380790438954
-450,grasp,12m,PC,0.615327678471473,0.504322373458932,0.512974598820738,0.638697235331476,0.456253466585577,0.490310894606821,0.502460280081238,0.47778596141599,0.605270183122511,0.559690199168051,0.486857039273132,0.529552901858476,0.544011272491111,0.524072296439641,0.539483541243092,0.520538322952063,0.572052716720233,0.497085272663811,0.44814255219781
-440,grasp,12m,PC,0.612348736694053,0.50428633924242,0.51132962735545,0.635545398417447,0.454300757221871,0.494270059202339,0.503785985209,0.474756747178617,0.60899587382753,0.557797395592373,0.486001722818354,0.53201179732982,0.542936322840685,0.522083438588356,0.538615262376768,0.514954458755622,0.573152384789584,0.495436756146199,0.444852815785083
-430,grasp,12m,PC,0.609402460398554,0.504140502853266,0.508415272468089,0.632550036356469,0.451936515332208,0.497371586323152,0.506043507399814,0.471815768640388,0.613240539479215,0.556031827840435,0.484474791600533,0.534325089607061,0.541463414943877,0.520287739705378,0.538167424426283,0.509921561168301,0.574363593192594,0.493236077147276,0.441511003364175
-420,grasp,12m,PC,0.60641825761856,0.503933638604025,0.504620999570718,0.629331592286895,0.449413628011419,0.499011010487368,0.509371155122226,0.469250400181685,0.61770376540705,0.554269374736572,0.482769659165793,0.536865603726828,0.539557268544452,0.518747866799646,0.537743370372134,0.505676073847714,0.576155591364174,0.490406983535348,0.438769487107872
-410,grasp,12m,PC,0.603233502963646,0.503848111133724,0.500105179223525,0.626537401231748,0.446854381189459,0.499971551303877,0.513131045365897,0.466792480985296,0.621966376860913,0.552409396952854,0.481148747617284,0.539577730727372,0.537366605899668,0.51725840683751,0.537465769196086,0.502524661868579,0.578113534284266,0.487239663223531,0.436902948900693
-400,grasp,12m,PC,0.599885746294662,0.504001991092231,0.494737609090946,0.624452698696484,0.444060990142351,0.500377442158384,0.517249326442249,0.464526014901141,0.625956379917947,0.550258590321245,0.479640428998474,0.541685839682388,0.535100134014825,0.515561411682916,0.537275394910091,0.500722624836606,0.580018030905667,0.483723812239075,0.436399210783669
-390,grasp,12m,PC,0.596383175400076,0.504286003542928,0.488903857381,0.622775704256086,0.4409668918853,0.500735764066767,0.52172607561275,0.462190329264723,0.62969017212902,0.547955325576265,0.478141964641838,0.542742425305075,0.533369929035149,0.51380421603624,0.537070592813658,0.500093950075166,0.582148184864605,0.479956038988726,0.437366268403221
-380,grasp,12m,PC,0.59285109791866,0.504528806143107,0.483187838487252,0.621117841872431,0.437662128033677,0.501395802826838,0.526522207695666,0.459621708510546,0.633055425541286,0.545469340848568,0.476796187200767,0.543285096192669,0.531982710609679,0.512146529586643,0.537005033845075,0.499393390464126,0.584542755258467,0.476053394124243,0.439388816876944
-370,grasp,12m,PC,0.589232338625099,0.50491253999059,0.477889554658175,0.619465662827018,0.4346130105711,0.502508516680308,0.531356048548736,0.457031865946215,0.636039048347414,0.543149858642924,0.475547879895983,0.543539694784751,0.530628963698912,0.51076503790196,0.537040375578617,0.498935392846347,0.587191539589566,0.472021235789701,0.441752221688081
-360,grasp,12m,PC,0.585661105788059,0.50573143783993,0.472670306426448,0.618301053844371,0.431716696751619,0.503610419550675,0.535532256821517,0.454779654906875,0.639195005232731,0.540993617783632,0.474085275165916,0.543658187169347,0.529389040252536,0.50965634503142,0.537350815262177,0.498307526150581,0.589267168153083,0.468104743629803,0.444466405946961
-350,grasp,12m,PC,0.582243762111763,0.507219779220007,0.467343641761966,0.617305897904094,0.4290434409794,0.50530423826988,0.539073259681079,0.453023067139071,0.642226391832622,0.539102787008434,0.472465567741707,0.543573528864694,0.527723909119431,0.509084347733772,0.53822115941888,0.497428135034824,0.590532236658158,0.464357322932364,0.447471123324117
-340,grasp,12m,PC,0.579074209672614,0.508914734809118,0.462217454709331,0.616474211228758,0.426276093381099,0.50695627996462,0.541805986503612,0.452259666720204,0.64449018666927,0.53759411412849,0.471510225968273,0.543397781995288,0.525162150343688,0.508801698332421,0.539523218650365,0.496105220144157,0.591512783953095,0.460677467711202,0.450608151484663
-330,grasp,12m,PC,0.576392872326696,0.510614294011893,0.457590970794497,0.616449454460089,0.42358299207169,0.50846797643938,0.544269614688088,0.452205235607304,0.645645431813926,0.536207366556623,0.471503527509017,0.543170676095853,0.522078542127231,0.508804799976538,0.541165136211543,0.494659286972771,0.592274023756959,0.457349421062798,0.453947177802178
-320,grasp,12m,PC,0.574120561747722,0.512105128266249,0.453227294808873,0.616272663710003,0.421047675398831,0.509482774713359,0.54659185709754,0.452833051435718,0.646377124348513,0.535150009882594,0.47276568767959,0.542556901689874,0.518396129379827,0.509566183660084,0.543093179492358,0.493409241611489,0.592808057454579,0.454335305298537,0.457788148113257
-310,grasp,12m,PC,0.571979257559877,0.513450291996206,0.449228856009557,0.615547409715202,0.418623469858089,0.510274899537953,0.548797353209747,0.453865594670983,0.646831873908818,0.534461469195917,0.475478087261487,0.541668112397013,0.514651331352727,0.511120396819555,0.54490541421096,0.491648392509487,0.59319938840089,0.451197891423002,0.462556683499364
-300,grasp,12m,PC,0.569903087868903,0.514728048752932,0.445738224484056,0.614546102678083,0.416353023444931,0.510621300084797,0.551073330520562,0.454802677173467,0.646984687955115,0.534008776269678,0.479524897066518,0.540712967808496,0.511071700550478,0.51302019528644,0.546262261217741,0.490840571418797,0.593573490498059,0.447598069344749,0.468421495935175
-290,grasp,12m,PC,0.56801992658813,0.515948180053417,0.442597566262139,0.613653890754304,0.414193134464589,0.510785407384662,0.553485101781828,0.455871112084128,0.646688948121763,0.53351982410198,0.484462473475733,0.539827738745831,0.508208204861146,0.515506498245687,0.54714843322142,0.490968214205542,0.593971189034724,0.444147092060079,0.475141283381252
-280,grasp,12m,PC,0.566214990067674,0.517289946457043,0.439813448189338,0.613224547567976,0.412232764983833,0.510754654902967,0.555808303137347,0.457578659667906,0.646207607968497,0.532863385167642,0.489351313288562,0.538850724985783,0.5063651910839,0.518324031172214,0.547627247766346,0.491876875451373,0.594602939062494,0.441250467838777,0.482485294299366
-270,grasp,12m,PC,0.564483512535828,0.518714594086137,0.437757917153294,0.613265539492706,0.410814128799096,0.510386195549097,0.558002780123123,0.459530543549004,0.645684482043199,0.5321387405701,0.493662821540164,0.537801598077409,0.505347208566271,0.521341489844145,0.547720855801482,0.492217872361887,0.595368986948471,0.439244988971007,0.49009473173566
-260,grasp,12m,PC,0.562758035336581,0.520622581649792,0.436573890712577,0.613711784801958,0.409861807212523,0.509563173963372,0.559930016925044,0.461137677715482,0.644871517032901,0.531238957162248,0.49743069304781,0.536999469218914,0.504455893527678,0.524291365708327,0.547259410001277,0.492131112702862,0.596814948857839,0.438110286167001,0.497861025374689
-250,grasp,12m,PC,0.560908812464106,0.522909882984161,0.436099904921142,0.614962404257454,0.408788370122771,0.508573050258161,0.56166456552626,0.462269227419504,0.643476645115618,0.530031527670975,0.501413246540212,0.536401663074473,0.503824219504063,0.52702172377822,0.546049128554302,0.492068441664253,0.598360012994558,0.438086895716206,0.505568588676203
-240,grasp,12m,PC,0.559079486332791,0.525327237580854,0.436005758744214,0.617068711186432,0.407622462589087,0.507588186111656,0.563486365400417,0.462962552268067,0.641709261678503,0.528450007977564,0.505633254595174,0.536029635127789,0.503777034840108,0.529330259635408,0.544338482473524,0.492085908820192,0.599884588267607,0.438656703017193,0.512969205250686
-230,grasp,12m,PC,0.557353802290591,0.528097135872036,0.436862173729916,0.619429528119609,0.406114890680153,0.506814965746547,0.564813305936203,0.463127125176062,0.639586657046042,0.526709998245577,0.510009294659952,0.535829446970665,0.503988594167604,0.531445307371084,0.542072505815199,0.491586810990939,0.601043596961343,0.439802056880076,0.520251321244253
-220,grasp,12m,PC,0.555505354053005,0.531352650433577,0.438446931794606,0.621858471425583,0.404173126714333,0.506222026092696,0.565539602321884,0.462963822189069,0.637017335048065,0.524680599038954,0.514756341517426,0.535969612003925,0.504076867974776,0.533529284586291,0.539420572368735,0.490637111076589,0.6012822925727,0.441602530372232,0.527047165927834
-210,grasp,12m,PC,0.553502679203726,0.535063727250265,0.440697095571128,0.624302540774352,0.402342075077603,0.505329664782715,0.566052739096073,0.462516751323567,0.633995829242977,0.522909397834383,0.519693410748181,0.536504002328685,0.504735986987025,0.535582803137542,0.536692908861842,0.488875610706918,0.600343010569443,0.443787118930555,0.533348801596435
-200,grasp,12m,PC,0.551439651811866,0.539013979973096,0.443360614377552,0.626640176832956,0.401219546115847,0.504019771883262,0.566834324272844,0.461637941249852,0.631074344210083,0.521422583250544,0.52485633041025,0.537409056599293,0.50623073130343,0.53762709272851,0.534214647308836,0.486551018943665,0.598266113176842,0.445874665158593,0.539088025456407
-190,grasp,12m,PC,0.549397471983664,0.542999062746379,0.445691053777356,0.629012098309201,0.400915001137877,0.502498169156564,0.568139912032168,0.460646817768332,0.628024787047339,0.519859839830327,0.529868500040882,0.538385476453881,0.508279232507546,0.540073907109546,0.532284320802666,0.483660232879739,0.595499866459957,0.447787578572075,0.543923856443135
-180,grasp,12m,PC,0.547416532308667,0.547192522899149,0.44846958482824,0.631353613727442,0.401708991167223,0.500912124468954,0.569649227163378,0.459664170548858,0.624757381254293,0.518478090256997,0.534292579814763,0.539517156876949,0.510397595862929,0.542874182516266,0.53082668872075,0.480106220131473,0.591876973526972,0.449916481221948,0.547510165996097
-170,grasp,12m,PC,0.545519599591693,0.550991487168616,0.452446529689944,0.633332362576709,0.403451604973352,0.499143585175264,0.57139610301023,0.45873369621958,0.621025422260855,0.517407831157183,0.538123145221098,0.541007643421896,0.512754816241473,0.545950959586506,0.529850838019168,0.476663806009629,0.587799910755706,0.451686887234356,0.550165526431384
-160,grasp,12m,PC,0.543709757610394,0.554519751340195,0.457856575942972,0.634632645673438,0.405867351443199,0.49721612725051,0.573386109939672,0.457964674357552,0.617364948980638,0.516867443269848,0.541279795616319,0.542449057444249,0.515354915760439,0.549255864814809,0.529249344556834,0.473422721956391,0.58355205253814,0.452946856068895,0.551717069597358
-150,grasp,12m,PC,0.541912167332637,0.557809291382878,0.464437522957024,0.63524231284194,0.408903003673692,0.494913353103041,0.574592437182724,0.457931602450986,0.614014361370682,0.51688871966622,0.544305899188852,0.543913874445625,0.518041481602809,0.552790786996715,0.528751755351771,0.470481423292851,0.578884360096307,0.453952631468124,0.552302395017299
-140,grasp,12m,PC,0.539996264394643,0.560835400638561,0.471785328851998,0.635244870339684,0.412714043029435,0.491979830688457,0.575874692280815,0.458728566692241,0.610664114133809,0.517232148171522,0.547473250892062,0.545191995137334,0.520380023865117,0.556498699317629,0.528120194070933,0.467965681152506,0.573619050225607,0.455178468085899,0.551608252944315
-130,grasp,12m,PC,0.538031045863775,0.563455815318805,0.479477301319404,0.634833353611411,0.417000725157466,0.488593415440223,0.577775113244816,0.460000187387823,0.607337399943759,0.517601094552936,0.550338580080943,0.546272306120912,0.52254596429556,0.560247888255207,0.527638909215167,0.465910066351633,0.567759197024572,0.456530680064067,0.549742184844955
-120,grasp,12m,PC,0.535988703135048,0.565618297330968,0.487473821218772,0.634054228875692,0.421681171294834,0.484984709943521,0.580871555935132,0.461876480705863,0.603979054147841,0.517584867999743,0.552156483333162,0.547474418893291,0.524919748469879,0.563771088534898,0.527566926711093,0.464837697984612,0.561469348117504,0.457830106039917,0.546864185206006
-110,grasp,12m,PC,0.534071809846436,0.567353302313201,0.495685219687516,0.632841412806028,0.426755726685032,0.481311476637035,0.5843922699333,0.464057396526923,0.600508029962859,0.517160906704708,0.553409162118152,0.548976034797783,0.527649845474447,0.566773063429435,0.52736352859627,0.463692259089711,0.554773876286549,0.459871462355591,0.543156239916552
-100,grasp,12m,PC,0.532416557799316,0.568648257503836,0.503637706986934,0.631171186072857,0.431373819646529,0.477903203493139,0.587907830159601,0.466488126997564,0.597057812475332,0.51659964158822,0.55414208058361,0.550662914791113,0.5308362672268,0.569227676260748,0.527045386360016,0.463002587869816,0.547738188423405,0.462600921421138,0.538915433243084
-90,grasp,12m,PC,0.531084915621829,0.569915672014089,0.511534743475882,0.628941809038621,0.435588025250076,0.474686876456793,0.591193142907665,0.468753305112356,0.593568080035325,0.515880643564778,0.554476153223785,0.552245598289649,0.534333183303447,0.571256422340946,0.526852530044124,0.463069628805265,0.540740915600514,0.465764513883995,0.534405089482673
-80,grasp,12m,PC,0.530084510960963,0.571271516932842,0.519742052013378,0.626001086524084,0.439945660452143,0.472168919836797,0.594396757067642,0.470669785900462,0.590171996876622,0.515193829519348,0.553903447229621,0.553811363139639,0.537318246520608,0.57284952372274,0.526979013877683,0.46378392935725,0.533998663207897,0.469258091292633,0.529643384834777
-70,grasp,12m,PC,0.529462752029583,0.572411827007375,0.528053134064592,0.622593726741241,0.444327281434195,0.470462073084935,0.59671233472417,0.472504063950644,0.587105983518041,0.514409160021934,0.552594551657118,0.555376124047874,0.53958005687497,0.574176006931371,0.527181462165115,0.464680133963335,0.527555963974617,0.473256705109001,0.524619812604641
-60,grasp,12m,PC,0.529090896162391,0.573657769098858,0.536076257501302,0.618736633754775,0.448083906562364,0.469712969486377,0.598257532174881,0.474169807642895,0.584531828515023,0.513468475653561,0.550474779912219,0.556649489503423,0.541667809526691,0.575184438648505,0.527156109238493,0.464860837146016,0.521519769515012,0.477242265381438,0.519621728676951
-50,grasp,12m,PC,0.528781372920777,0.575154314341885,0.543291646637863,0.614313146856042,0.450536754443726,0.468667976881574,0.599228957558654,0.476284531486129,0.582582303434344,0.512583724649949,0.547100337656895,0.557731277005387,0.54358917036883,0.57588869947392,0.527119870330401,0.464687541207924,0.51628809712321,0.48067335303878,0.514767161626887
-40,grasp,12m,PC,0.52839766550077,0.57684372837522,0.549731161004168,0.609468171127552,0.452247123356923,0.467207644632235,0.599383672468455,0.479470174727355,0.581164397549675,0.511492081328575,0.542151864174296,0.558640733063878,0.544646539770121,0.576377264239739,0.527574019586103,0.46452247176569,0.511847696915047,0.48363892511454,0.510389784256599
-30,grasp,12m,PC,0.52811620862861,0.578766762191056,0.555416704642114,0.604482293813956,0.453182926051646,0.466177581956456,0.598542843803013,0.48285634569898,0.580072844747543,0.510582351451442,0.536765905522289,0.559135738013815,0.544883112145024,0.576729745555875,0.528111365244367,0.464393244064471,0.508041725359688,0.485759688246654,0.506790651369047
-20,grasp,12m,PC,0.528094836719402,0.580838271683713,0.559818549994149,0.59964197106138,0.453498441090805,0.46548755075499,0.596527039038182,0.485923751479928,0.579127616424985,0.509805912583249,0.531067373309263,0.559462970299074,0.544195524910901,0.57648426145182,0.528546424838454,0.463991309180309,0.505031290696022,0.48699128595998,0.504335152368444
-10,grasp,12m,PC,0.528315823690544,0.582918600220703,0.563491608073452,0.594910986817622,0.45250194707049,0.464841693715367,0.593145933282745,0.488961376478856,0.578540306574163,0.508960333573288,0.52526059922144,0.559839012095871,0.543153251830243,0.5758175365805,0.528760320493422,0.463653035397612,0.502953424328145,0.487398863716847,0.502634053496505
0,grasp,12m,PC,0.528735728849728,0.584991253258182,0.566844022781218,0.590380148248091,0.4505087451682,0.464290495610434,0.588173428118219,0.492113994963651,0.577921217236956,0.508448380950359,0.519695242426265,0.560082507088577,0.541876636732907,0.574698618998486,0.528558600935811,0.46356261711441,0.501722572768808,0.487051507881801,0.501289981103775
10,grasp,12m,PC,0.528982198089151,0.586932481199194,0.57004465104588,0.586887207612645,0.447176794776479,0.463770159209513,0.582366450482582,0.495622807802667,0.577499611207849,0.508426381488337,0.513825827096794,0.560393410517332,0.540335661060771,0.573021411330016,0.527861366279489,0.464231161866388,0.501211030380381,0.486128343983717,0.500653197890889
20,grasp,12m,PC,0.528725570147831,0.588906265054864,0.573125062409836,0.583932893788684,0.442926597990446,0.463411009706968,0.575868810241737,0.49944188975993,0.577317961355072,0.508686435672517,0.507753222662748,0.560696167427923,0.538490469267678,0.571315227803786,0.526282982779486,0.465339169769595,0.501245272304464,0.484992679812746,0.501205005366509
30,grasp,12m,PC,0.528178918503879,0.591003531941335,0.575548156010704,0.581368599599594,0.438616317945498,0.463132944380033,0.56828544054909,0.503526438912218,0.577470499117367,0.509305044433335,0.502119404398693,0.560963958187971,0.536250180724816,0.569516564824147,0.523851630888468,0.466084486873749,0.501489332317979,0.483805135974895,0.502841251728901
40,grasp,12m,PC,0.527591435681507,0.592845691577938,0.577261468450472,0.578690966032792,0.434527952705798,0.462646514373781,0.560331093575869,0.507649308866393,0.57810005773802,0.510132522024441,0.497293588056846,0.561262043200154,0.534462952917974,0.567479553172099,0.521112354448051,0.465966707977518,0.501176554890643,0.482570046390135,0.505297985384701
50,grasp,12m,PC,0.527093184456763,0.594524767405072,0.578560864104792,0.575731948211713,0.430518842941012,0.461972622422973,0.551738483915039,0.511391405127087,0.579300321587899,0.511473054336515,0.493450710383305,0.561355834079032,0.532715419701045,0.565522940944693,0.51789203846002,0.465306074989529,0.500493636428762,0.481208330914822,0.508079211660645
60,grasp,12m,PC,0.526343887155289,0.596120590730661,0.579403878888307,0.57265393980073,0.426713737844576,0.461115150600076,0.542509588142633,0.515021186729733,0.580847737641992,0.514081579112466,0.490189118409726,0.561209746656983,0.530758446633331,0.563599992503223,0.514469037425324,0.464171454257679,0.499334785744577,0.479554608208173,0.511006911163843
70,grasp,12m,PC,0.525388922182824,0.597488377232073,0.579673915127067,0.569345989992288,0.423198434091436,0.459960228695439,0.532768247202799,0.518888158804399,0.582618153888534,0.517664530957076,0.487032994049326,0.561065437358291,0.528636057575656,0.561831997197944,0.510821956142893,0.462884484892087,0.497731540494625,0.477900043833179,0.514001898556558
80,grasp,12m,PC,0.524213392828204,0.598400213954743,0.579139980576389,0.565339723295177,0.419728252831692,0.458627740016268,0.522511323425719,0.522874001644904,0.584641407869101,0.52222753765631,0.484232616063298,0.561148234051016,0.526056920573266,0.560296791030335,0.507288634653974,0.46219302852701,0.495734551416824,0.476369638947938,0.516891646104447
90,grasp,12m,PC,0.522745803166147,0.598728997840965,0.577926693485025,0.561271281191823,0.416181271642225,0.457425379684758,0.512584344610133,0.52651974555369,0.586934549896231,0.52794315900953,0.482342700044593,0.561058784890248,0.523265159893781,0.558554013461084,0.50411762482049,0.460943796884037,0.493426867083056,0.474693870103533,0.51918687397191
100,grasp,12m,PC,0.520944463808577,0.598357185692482,0.576183523104535,0.55727450746504,0.412895875310066,0.456322254734893,0.503829438574591,0.529681912511481,0.589651287107379,0.534516448504854,0.481618275351842,0.560776376836277,0.520311949939993,0.556424420206337,0.501461432974525,0.459330456400341,0.490839388099973,0.472875739290671,0.521206197007653
110,grasp,12m,PC,0.518935001722049,0.597590231560156,0.574150442143677,0.553613610977856,0.409605169596189,0.455127816574541,0.497152059086793,0.532842184216362,0.592383077941368,0.541227991712803,0.481710917776129,0.560297953469685,0.516983969341798,0.553852455898747,0.49945924151898,0.45769176339468,0.487577151541383,0.470824677231533,0.523353409477049
120,grasp,12m,PC,0.516729299613966,0.596687417467195,0.572052424579976,0.55041835621892,0.40686234295407,0.453736024647945,0.493048406935238,0.535701446338493,0.595043707521029,0.547553857871183,0.482134432797173,0.559546326175499,0.513034845229173,0.551288804801237,0.497942688757556,0.455700049093144,0.483493305529139,0.468737230853954,0.525831786908648
130,grasp,12m,PC,0.514349286576017,0.59574758078793,0.56997101440186,0.547280873652269,0.405207030441576,0.452983307003594,0.491261070924702,0.538165323526777,0.59702703087389,0.553698665701325,0.482918821436735,0.558357801080283,0.508569794018173,0.548330859916609,0.497123629183371,0.453421796371699,0.47900511840932,0.466593490862908,0.528191437333978
140,grasp,12m,PC,0.511682814552486,0.59479434355028,0.567878165721945,0.543761474878521,0.404317024611221,0.453016269161362,0.491249191929335,0.540510029584366,0.598847398723469,0.559625708973103,0.48328546355631,0.556923656526483,0.503648812565597,0.544870230247686,0.496961331151754,0.451994661092312,0.474138242478403,0.464451965816842,0.529820887474381
150,grasp,12m,PC,0.509014185861722,0.593785037002785,0.565745310508362,0.540508049071829,0.403452015095095,0.453577405138487,0.492418827837896,0.542622825175965,0.600682123041902,0.564712366886232,0.482366459846231,0.555500254327344,0.499148543522943,0.541099330546067,0.497329731035544,0.451825449288784,0.469210925787485,0.462504998110349,0.530268744379576
160,grasp,12m,PC,0.506449137221046,0.592777762215597,0.563700538842536,0.537576520000814,0.4028595537611,0.4547710712826,0.495081053622373,0.544802434265254,0.602251465011118,0.568896877947631,0.480526856155701,0.554361778237929,0.494821521934535,0.537026902063216,0.497889183350894,0.452935483372647,0.463923715568911,0.46072255504304,0.529796871098618
170,grasp,12m,PC,0.503999274276152,0.591756973606129,0.561553174112406,0.535145618624763,0.402313719079489,0.45647085484558,0.499352687359123,0.546727051182942,0.604035280538375,0.572334269914402,0.479866299483537,0.553436427708258,0.490583899773434,0.532529627069934,0.4984925067079,0.454973601461824,0.458933934893607,0.459199313044318,0.528740573767287
180,grasp,12m,PC,0.501692899658785,0.590776570717633,0.559134016294604,0.533041516680581,0.401981272949738,0.458393989640508,0.504106984486786,0.548054541869664,0.605978459682041,0.574695841865844,0.480978113717211,0.552395147420556,0.486905024997471,0.528250615189659,0.499067835707411,0.457443762548099,0.454783164853204,0.458010261355378,0.527325849320805
190,grasp,12m,PC,0.499580221357525,0.590095581001889,0.556299654421422,0.531902892472409,0.401740025301468,0.46032066641386,0.508890117710379,0.54891989950797,0.607938102204008,0.576199703807495,0.483827557288445,0.55136908794748,0.484030676901954,0.524153845230823,0.499437604342754,0.460402191646516,0.451988525287677,0.4570383235944,0.525712919210017
200,grasp,12m,PC,0.497356097273169,0.589641894160026,0.553060528749158,0.531393078920404,0.401590416827869,0.462372731562498,0.513997733402824,0.550327812140447,0.609886094488639,0.576847216003706,0.487539159576733,0.550346053378318,0.481907833710418,0.520187659543581,0.499488700805382,0.463889943464631,0.449758707607536,0.456369770237391,0.5244854952228
210,grasp,12m,PC,0.495126892719745,0.589446417551021,0.549469901469811,0.531151136443944,0.401735011634002,0.464265385896402,0.51914148131942,0.551962178490063,0.61155168095799,0.576710369462063,0.491323100000906,0.549279848032194,0.480679811203052,0.516183675057795,0.499141804108336,0.467870458089233,0.448066334672669,0.455963071642886,0.523542099466244
220,grasp,12m,PC,0.493265559241547,0.589066765060001,0.545361169180745,0.531067754459139,0.402526132284332,0.466005722463329,0.523938901104903,0.55360553761499,0.612729726957516,0.575954822489428,0.494647548341475,0.548357131796903,0.479515420671506,0.512536319271176,0.498156890886228,0.47174718043765,0.446911876288395,0.455656922936844,0.522760795555286
230,grasp,12m,PC,0.491387825656064,0.588181533025259,0.540833221593662,0.530807706456139,0.403485194062042,0.467352589970748,0.528838289606311,0.555363760706848,0.613710851687239,0.574252694202434,0.496919754045681,0.54776181152516,0.47812198935664,0.509117219531161,0.497102012109291,0.474947069805878,0.44623295231925,0.455414043613412,0.522055473444029
240,grasp,12m,PC,0.48987474347553,0.586460538127501,0.536394641755152,0.530230963259209,0.404345364709602,0.468361879156467,0.533816082917953,0.556971005812585,0.614534372317603,0.571924719418677,0.49776009724511,0.547582788987207,0.476875508591937,0.505624164715804,0.496364252109266,0.478019989254697,0.4459580721254,0.455168926045007,0.52156178821667
250,grasp,12m,PC,0.488743657848908,0.583990867221321,0.532683696353493,0.529173831547228,0.405111759314542,0.46904308886576,0.538769992568929,0.558651810362565,0.615158036987501,0.569093301033338,0.497136667208061,0.547613033751352,0.47591663841945,0.502230627796351,0.495590270209208,0.480832207059438,0.446313833918606,0.454505962360014,0.521350873808901
260,grasp,12m,PC,0.488083394050904,0.580790939195697,0.529721906792452,0.527618005342747,0.40595333591775,0.469382747975907,0.543850662877735,0.56070894492192,0.615753100116794,0.565950107666392,0.494987974956889,0.547821836150991,0.474981337965908,0.498991764717019,0.494776322087082,0.483127214114379,0.447540534498991,0.453351526824204,0.521700825536009
270,grasp,12m,PC,0.487769621696747,0.57665924167846,0.527568662848344,0.525936902446052,0.406929046150019,0.469501654267962,0.548832539003749,0.563232330192456,0.616312799671191,0.562559881492343,0.491745803914624,0.548028176519857,0.473860770758696,0.496139771040888,0.49430563652475,0.484969870944667,0.449761408035895,0.451914969303822,0.522925612913891
280,grasp,12m,PC,0.487630615970602,0.572296496733519,0.526238332698616,0.524025053782911,0.408427823154407,0.469419054577212,0.553144674759136,0.566178637626192,0.616722487736024,0.559671936254958,0.487828339781021,0.548280277140707,0.472620794958044,0.493663555385183,0.493969017201982,0.488089044823826,0.452749489694608,0.450292726459938,0.524206946804872
290,grasp,12m,PC,0.487561451248617,0.567482764452812,0.526234030941535,0.522014068453006,0.410351648037676,0.469018178127016,0.556501251902897,0.569609432484676,0.616340096825149,0.556935702461696,0.482925540379417,0.548145115702667,0.471305485014275,0.491565597722746,0.493707549687145,0.490366589898708,0.456260006360728,0.448419294629566,0.525193537336012
300,grasp,12m,PC,0.487297576327894,0.561871092038554,0.526733573153606,0.520211910925767,0.412494589836359,0.468246334646314,0.559969671129001,0.573173964075575,0.61544834280586,0.554036868230359,0.476802451041498,0.547771857749821,0.46989798324344,0.489604235485072,0.493284604339173,0.491493169156822,0.460293882375813,0.446048647781712,0.525754534040051
310,grasp,12m,PC,0.487016004144351,0.55571320665895,0.527353685282716,0.518826657266356,0.414752045745215,0.46725956263679,0.563193062406862,0.576623524112738,0.614245204115915,0.551208882046699,0.470509498025509,0.54696326204962,0.468903975822499,0.48783277738415,0.492250522775751,0.492485184487538,0.464547517776593,0.443444891842053,0.525903212968241
320,grasp,12m,PC,0.486986258880367,0.549418063254854,0.52926582792236,0.518297527345191,0.4170836244645,0.466129279743248,0.565951635637818,0.579988899750927,0.61284468289946,0.548298231459041,0.464446696244725,0.545693960871614,0.467940733219398,0.486487202893238,0.490794189207631,0.493500787727816,0.469273423342219,0.44070695026863,0.52551137492133
