Time,Condition,Age,ChannelPair,connect_overtime_LA_EEG_12_P04_CTS_MTH_chanpair_12m.mat,connect_overtime_LA_EEG_12_P05_CTS_MTH_chanpair_12m.mat,connect_overtime_LA_EEG_12_P06_CTS_MTH_chanpair_12m.mat,connect_overtime_LA_EEG_12_P07_CTS_MTH_chanpair_12m.mat,connect_overtime_LA_EEG_12_P08_CTS_MTH_chanpair_12m.mat,connect_overtime_LA_EEG_12_P10_CTS_MTH_chanpair_12m.mat,connect_overtime_LA_EEG_12_P11_CTS_MTH_chanpair_12m.mat,connect_overtime_LA_EEG_12_P16_CTS_MTH_chanpair_12m.mat,connect_overtime_LA_EEG_12_P17_CTS_MTH_chanpair_12m.mat,connect_overtime_LA_EEG_12_P19_CTS_MTH_chanpair_12m.mat,connect_overtime_LA_EEG_12_P20_CTS_MTH_chanpair_12m.mat,connect_overtime_LA_EEG_12_P21_CTS_MTH_chanpair_12m.mat,connect_overtime_LA_EEG_12_P22_CTS_MTH_chanpair_12m.mat,connect_overtime_LA_EEG_12_P23_CTS_MTH_chanpair_12m.mat,connect_overtime_LA_EEG_12_P24_CTS_MTH_chanpair_12m.mat,connect_overtime_LA_EEG_12_P25_CTS_MTH_chanpair_12m.mat,connect_overtime_LA_EEG_12_P26_CTS_MTH_chanpair_12m.mat,connect_overtime_LA_EEG_12_P27_CTS_MTH_chanpair_12m.mat,connect_overtime_LA_EEG_12_P28_CTS_MTH_chanpair_12m.mat
-1000,cane,12m,PC,0.520390846773292,0.572829143352549,0.545416816267691,0.613781686517245,0.693332450704679,0.531415959115906,0.433194226297063,0.485029359361434,0.599517392208259,0.540883472708827,0.637774940388956,0.530351185569529,0.47998605721478,0.743854663983808,0.601725316027641,0.54246488472504,0.564620349182568,0.595743401770454,0.566587369421734
-990,cane,12m,PC,0.521200427968693,0.57409727087631,0.538217325694444,0.616995537652861,0.692997390928011,0.531805917170588,0.437414888464478,0.479746511576647,0.598148682457444,0.528333456842993,0.64704958787501,0.526658131368917,0.478539790932563,0.741965906716569,0.603093028335761,0.546244458541711,0.567935476141042,0.593869121554787,0.568871480386632
-980,cane,12m,PC,0.522006442032785,0.575570892895194,0.530419530758185,0.618268395880368,0.692113856343629,0.530702364441249,0.442928234087059,0.473739951443894,0.596263590151282,0.515772139714873,0.654661015535943,0.522950665745573,0.478126563773234,0.739447091148356,0.605189769427291,0.548623879585484,0.570649917458854,0.592634795700491,0.568878710916031
-970,cane,12m,PC,0.52290183591019,0.577223924341282,0.522155070242786,0.617552663999107,0.690714865276034,0.529261669745271,0.449205339450349,0.467066535725183,0.594404073356837,0.504018854670015,0.661540693883244,0.519383262250215,0.478749771642341,0.736483771353739,0.607772845471534,0.550487289691069,0.57249317647094,0.592132634789365,0.566194848051959
-960,cane,12m,PC,0.523948214296521,0.579064254550597,0.513384121938844,0.614507454740877,0.687966170746867,0.527091178059401,0.45620035247134,0.46031218882493,0.592403432877424,0.493264650425975,0.667807146367833,0.516153607712639,0.479532968607728,0.733187825433024,0.610823380251804,0.552581516439711,0.573118163266357,0.592767234835959,0.561547413242633
-950,cane,12m,PC,0.52486564997125,0.580995170894969,0.503953580876459,0.608187714370553,0.684229541180172,0.523833898157741,0.463541877020794,0.45381471881441,0.589584046901048,0.483578651967506,0.673321866101936,0.513412866095956,0.479597733725095,0.729417251659068,0.613544054047578,0.555254667593347,0.573397249399061,0.594497381734173,0.555252074041451
-940,cane,12m,PC,0.525051548074954,0.582419969577851,0.494690181255088,0.599799947232067,0.679684771112826,0.519445959800751,0.471505180758466,0.447737100879068,0.58620113212638,0.475097991407761,0.678258278716106,0.511590891713637,0.479305334284313,0.7249747034674,0.616282022329145,0.558538108677824,0.573968343238563,0.59658796910156,0.547653428590223
-930,cane,12m,PC,0.525144851746825,0.583547579822897,0.486059662078251,0.589832701787869,0.674625365793735,0.51400378470829,0.479783897344783,0.441511302116399,0.582286258068641,0.467279984781191,0.682206432428066,0.510572692665812,0.479295382660552,0.719739960185486,0.619301216747735,0.561451992422006,0.574536147665877,0.59849144579557,0.539291768494385
-920,cane,12m,PC,0.525401337529269,0.584489059610179,0.479513658394284,0.578915862597214,0.669838397838376,0.507150651591409,0.488102553810535,0.435658515383015,0.57827914007739,0.460275774092129,0.684997772685604,0.51028779603941,0.479409924965119,0.713845605136478,0.622673117037462,0.563644988321084,0.575218172266122,0.599743282008173,0.530577558889601
-910,cane,12m,PC,0.525715705303942,0.584791828377738,0.475815242940897,0.567249331957946,0.665651101230729,0.498907152951342,0.496894974955222,0.431066041371339,0.574639917017851,0.45428074755808,0.686327452435153,0.510778909352838,0.479071887700836,0.70741901011902,0.626018505649542,0.564864258483904,0.575969369241512,0.600165248037903,0.522557954062355
-900,cane,12m,PC,0.526128675000143,0.584878569342935,0.474590976581343,0.556218336199427,0.662012328645801,0.48979699801181,0.504166621112172,0.427531540531713,0.571477263279025,0.449258196296332,0.686042237433378,0.512009817088784,0.478171140782715,0.700377699349027,0.629141649679461,0.567385949332952,0.577070437603561,0.599497755697234,0.515143061936027
-890,cane,12m,PC,0.526472397837528,0.585337493152383,0.474811203392179,0.545639015022561,0.65922015089474,0.480272448420155,0.511079358203957,0.425029221009275,0.56872601775318,0.445239420272121,0.684966472184146,0.513625759149507,0.476716923152688,0.692777918884555,0.631878251547755,0.570909280688983,0.57861362313568,0.597529138954835,0.509004550684584
-880,cane,12m,PC,0.526637437512835,0.586441713779719,0.474726645120588,0.536468602760845,0.657219104350834,0.470336644616246,0.517181707944302,0.424110471272576,0.566198540023877,0.442915283450338,0.683647854909418,0.514571403301882,0.475732537206689,0.684948795094499,0.63351803176064,0.574821141773987,0.580519101453981,0.594605041200961,0.505035086632926
-870,cane,12m,PC,0.526371015834972,0.587129076761878,0.474058273141752,0.529075225188692,0.655924837199175,0.460403159937435,0.522647608819299,0.424806020885023,0.56465950711193,0.442549363014995,0.68243955517524,0.514458660400665,0.474791282515445,0.677189213112466,0.633779350286499,0.578927663395912,0.582518142228629,0.591021414595373,0.50314937892136
-860,cane,12m,PC,0.526062743304683,0.586808927666021,0.472974722799167,0.523998462077863,0.655345645379096,0.450633101988365,0.527807407896781,0.426358472756833,0.563297596682493,0.443814830030448,0.679831136529308,0.513772751568737,0.473730306576914,0.669666948416344,0.633431031848365,0.583627320029827,0.583978257019997,0.587561017579668,0.502382715457785
-850,cane,12m,PC,0.525812956949126,0.585702666875838,0.4708470704613,0.521261947112153,0.654881949349623,0.441212479978209,0.533990961414977,0.428373845468552,0.562274377062944,0.446360631888634,0.675539902254111,0.512534971188736,0.472727858474713,0.662487397891373,0.633103514241634,0.588944252979772,0.584532837413724,0.584364338851942,0.502678086132736
-840,cane,12m,PC,0.525157478339263,0.585315543690992,0.469241372954679,0.520228915982612,0.654212342510354,0.431833023855799,0.541177756312308,0.430228528115159,0.561290704065254,0.449281974922537,0.670257607712167,0.511038217390223,0.471653594599788,0.655843529185846,0.632872051206118,0.594565759750635,0.584089065657457,0.582219847363109,0.5037862604754
-830,cane,12m,PC,0.524057178292707,0.584451441605869,0.467644669228334,0.520465399964542,0.65351669863312,0.422584693006371,0.548825421213847,0.431930204307122,0.561194447978875,0.451968800587892,0.664104777849273,0.509474787962113,0.470832422171646,0.649855917954303,0.633181708581091,0.601317304765044,0.582772909159335,0.581076566616848,0.505213593698251
-820,cane,12m,PC,0.522361261737649,0.582511220610908,0.467486342587031,0.521296445215007,0.652983810274206,0.414301285757492,0.55658566226526,0.433704955195286,0.561892359680557,0.454442869003055,0.657311227041647,0.508332032792571,0.470636402232916,0.644644282871072,0.634029799353514,0.609203754481987,0.580559188337409,0.580034233181219,0.506579331645169
-810,cane,12m,PC,0.520060054217933,0.580441652828381,0.4693050266167,0.521939337683683,0.652806259097567,0.407057956982415,0.563518621275397,0.436010101432405,0.563993366535807,0.457336480718923,0.650194220685869,0.507204301661491,0.470384657337668,0.640507776320824,0.635044399509741,0.616507413474525,0.577535095517695,0.579140264451361,0.508937036981469
-800,cane,12m,PC,0.517409318812841,0.578921159675024,0.472105467448155,0.522397747491069,0.653352079353323,0.401414489740793,0.569474078215613,0.43841659141768,0.566904263147764,0.460726396179768,0.642388959351068,0.506214541920251,0.469921499067938,0.637673507856079,0.635980843629486,0.62112035509038,0.574381662575672,0.57854150651396,0.511772563262803
-790,cane,12m,PC,0.514702551300013,0.577812493698305,0.476494204700332,0.522386447058253,0.654359214133135,0.396955381459336,0.573478739441672,0.440667671260112,0.570805785929951,0.464387265157548,0.634102201005848,0.505020197113724,0.469443461812636,0.635783562695475,0.636729488476826,0.623299085983457,0.571058368841166,0.578001219229999,0.514477415269465
-780,cane,12m,PC,0.512196426052572,0.576534907870146,0.482775865784734,0.521057934439381,0.655841523658685,0.393736193269635,0.575649718768257,0.443020751802882,0.575693121373836,0.467850221240583,0.62545425096358,0.504183388012826,0.469173146986655,0.634706816478665,0.636699981837611,0.624048180446281,0.567522386294018,0.577894591343376,0.516328870593237
-770,cane,12m,PC,0.510224590246392,0.575240920659573,0.490599682875845,0.5183134983449,0.657588842679919,0.391833287891355,0.575519246448708,0.444956701174415,0.581603828376767,0.471510266406668,0.616047923917417,0.504036174541414,0.46942575715817,0.634338159547131,0.635287937494923,0.623612923684196,0.563742661459934,0.578552334866303,0.517459286876416
-760,cane,12m,PC,0.508841092198527,0.573534689327889,0.498932104231214,0.514173176287266,0.659932615765956,0.392216422990036,0.573321831064912,0.447124770009337,0.587862819882946,0.475720306451361,0.605681635818713,0.504777406309981,0.469561542582126,0.634288180627891,0.633355586838131,0.622654391251107,0.559687531945943,0.579677428263928,0.518264351023548
-750,cane,12m,PC,0.508548289432927,0.57215419703657,0.50744915652006,0.509518288620793,0.66253081872411,0.393786157448777,0.570131531522171,0.449279332275879,0.594645912877188,0.479689533154805,0.594962062325195,0.506184488955166,0.469566560567025,0.634188738732261,0.63153262070643,0.621890204876118,0.555377602477218,0.580708988649476,0.519670277898858
-740,cane,12m,PC,0.509126294893826,0.571028029810778,0.515829470553405,0.50486051805374,0.665432020681351,0.395104254950252,0.566120461844412,0.451323231235369,0.601867030369888,0.483148274160647,0.583950099880557,0.508312603621784,0.469613709989533,0.634542113402588,0.629963568119792,0.621465220762125,0.551006449633944,0.581151795558502,0.520570665824599
-730,cane,12m,PC,0.50994776743323,0.569962932566128,0.523024623245628,0.499218240567531,0.668107798633842,0.396765261484997,0.56061852189196,0.452880887456818,0.609021027026641,0.486438274171628,0.573447392508463,0.510832667718799,0.470078603696866,0.635449944119179,0.629072387781584,0.621169220431887,0.546586423071974,0.581312976450359,0.52096222136767
-720,cane,12m,PC,0.510558344594853,0.568905414388623,0.526633908659893,0.493019176167262,0.670386177038762,0.398260343755637,0.554153404722399,0.453912714601924,0.61508415098762,0.49006158319932,0.56357308893002,0.513502029160514,0.47104997292363,0.637221113923926,0.628890786076927,0.620745481084914,0.542426017213301,0.581231836448279,0.521673231717276
-710,cane,12m,PC,0.510808784421445,0.568353893241276,0.526450056141588,0.486790739629744,0.672021450583518,0.398615733353953,0.547438845901332,0.45398753360762,0.620276769447495,0.493652394641455,0.554419315265515,0.516314245062723,0.471879320145272,0.639513518669646,0.628961909245105,0.619657182865059,0.538578914303456,0.581142656079325,0.522871486122802
-700,cane,12m,PC,0.510901588079913,0.568305573341766,0.522899254597497,0.479479076464026,0.672804087221493,0.398605165226945,0.542087443795715,0.453475975445503,0.624884485551542,0.497481344681977,0.54602670057028,0.519501838254213,0.472589121114071,0.642230828871144,0.628778310237402,0.617867962078475,0.535873156974535,0.581241030235051,0.524659404273149
-690,cane,12m,PC,0.511311284998208,0.568036406747234,0.515936415888406,0.469810944542935,0.672584013958582,0.398231657198342,0.538733809498688,0.452134373839654,0.628715322462308,0.501597180533159,0.538075846533008,0.522736667701421,0.472989465874398,0.645108971255083,0.628363881404289,0.616133320191266,0.533570682782535,0.581928475638582,0.526621485710957
-680,cane,12m,PC,0.512428271485571,0.567167071001736,0.50789592523513,0.458932748353662,0.67117629251213,0.397882486012083,0.53758041126491,0.449569588239127,0.631325593475138,0.506014224451214,0.53047331063871,0.526172364411124,0.473145573334629,0.647934957074907,0.627690363545076,0.61583865430933,0.531375260647733,0.583404317517154,0.527924781905403
-670,cane,12m,PC,0.514147676449408,0.565661072304874,0.500289887968343,0.447620582326794,0.669020158207581,0.397897431980124,0.538435059698196,0.446162074374638,0.632713780276958,0.510351815801349,0.52347678758666,0.529343767079244,0.472979857154638,0.650766758471491,0.626505312159681,0.616731158724422,0.529670460440102,0.58577045764025,0.528525165657212
-660,cane,12m,PC,0.516311996751684,0.563444189145716,0.494323715939171,0.436697148603206,0.666518591679675,0.39818304397044,0.540688729543755,0.442449130537971,0.63249999094033,0.514051068986418,0.517790439550786,0.532087252238323,0.472765072559723,0.65367011840365,0.624811261432654,0.61877953635392,0.529059579390745,0.588526678482076,0.527975792456679
-650,cane,12m,PC,0.51887037254982,0.560384035030099,0.489163383098338,0.42677435942638,0.664052543052021,0.39849316801868,0.543930029465759,0.439041837381792,0.631794844270293,0.517792801498835,0.513409895700416,0.534548896477911,0.472073557719545,0.656616190374462,0.622090838761782,0.621841748683635,0.529535967145315,0.591269187368293,0.526772768714208
-640,cane,12m,PC,0.521678427323268,0.556631995884369,0.48475426292436,0.418441821984741,0.661259871861718,0.399203803839247,0.547976644294901,0.436479532206102,0.63074433233611,0.522490825450414,0.510129727641216,0.53682190510018,0.47154427266672,0.659367840302764,0.618398318069604,0.625256840964181,0.531642408520902,0.594536632198729,0.525925037943074
-630,cane,12m,PC,0.524406984786221,0.552859805210835,0.480882635039564,0.412097271539685,0.657857451164309,0.39943359569314,0.552292037623923,0.434862593308913,0.628488022554853,0.52791043138512,0.50858049426057,0.539035258007718,0.471351575893656,0.662053094430604,0.614222711259703,0.628798805517894,0.536273458256947,0.598518767805898,0.526551007912333
-620,cane,12m,PC,0.526725138862652,0.54935297185278,0.477401472566687,0.40810420418835,0.653879422847204,0.398729957698681,0.555302222424083,0.433909482629108,0.625135541311649,0.533791013577996,0.508705478760478,0.541048790579888,0.472061769743862,0.664874444837917,0.609330298687924,0.632417576819686,0.543319476590526,0.603384020509595,0.528195473065339
-610,cane,12m,PC,0.528136909015447,0.546002984559595,0.473701026665582,0.406996736992955,0.649514596805637,0.397335530468472,0.557717490685842,0.432912261783027,0.620307688228195,0.540078027624397,0.509887589728434,0.542878897224331,0.473388768536259,0.667608847584511,0.604097001844591,0.635631783004166,0.550958290754115,0.608803616851597,0.530528894271225
-600,cane,12m,PC,0.528925489259764,0.543336955118192,0.469240018488638,0.409636156406594,0.645122766352876,0.395989986002461,0.559961581092736,0.431604222545337,0.614423012499384,0.546156286536995,0.511576996604916,0.544231085937624,0.474708077242148,0.669818779152368,0.599057931159095,0.638591560627112,0.559171340053338,0.614245688866928,0.532854636989257
-590,cane,12m,PC,0.530230984497251,0.542174705822804,0.464088606116699,0.414537944640904,0.640176973235268,0.394649684805151,0.561889862074015,0.43055426400285,0.608281684586536,0.552353296805954,0.514283901048254,0.545078636180925,0.476311380013072,0.671490906710488,0.594114771096793,0.64101064483416,0.567842498331941,0.619149747639604,0.534509677470038
-580,cane,12m,PC,0.532682936464598,0.542938435585326,0.458009844664951,0.420993517622052,0.634608283792978,0.394815638681597,0.563639706051795,0.429550003539989,0.602287890356768,0.557353717270121,0.51727393735913,0.545440052897685,0.477924127562309,0.672804555989311,0.588831441628341,0.643530898102739,0.577119427617061,0.623478016040843,0.535894927322356
-570,cane,12m,PC,0.535810603592333,0.545182140128133,0.451354161406191,0.428170470065157,0.62855684055547,0.396676963496364,0.564707491560661,0.428586721939548,0.596889746119374,0.561128944017112,0.52044544817313,0.546016777352718,0.479491582542162,0.673941908555514,0.583391580689906,0.645963791917903,0.58643690423453,0.62723121282657,0.537028363307042
-560,cane,12m,PC,0.539124158724998,0.549126657037667,0.443949815596932,0.435634888431163,0.621607613855469,0.40060503519236,0.565778787175541,0.427484957893957,0.592582039224474,0.563026292137741,0.52347160552224,0.546670138132541,0.481044981585107,0.675200957828309,0.577913286335197,0.648566071654545,0.595649336569609,0.630479867581662,0.537637293103621
-550,cane,12m,PC,0.542261768010861,0.553923270727029,0.435144260143195,0.44361854616025,0.613620987030261,0.406843029651307,0.566429516598028,0.426234793963415,0.589393825864728,0.563411780946452,0.526315845871831,0.547119578725262,0.482425065541763,0.676667732578133,0.572894683583681,0.651181602336788,0.604059471261632,0.633843702308162,0.537639159781651
-540,cane,12m,PC,0.545207650431414,0.558974385967266,0.425425666328897,0.451712205850409,0.605668829778828,0.414847989319881,0.566533314149433,0.424409275040108,0.586929853865974,0.561355785478017,0.528276940549046,0.547392771637565,0.483732933257734,0.678266229284565,0.567859833481721,0.653875683761354,0.611652531528012,0.637123626194066,0.537003078572387
-530,cane,12m,PC,0.547946525659206,0.563698480943804,0.415466765741417,0.460225186321896,0.597675056757897,0.425313525095947,0.566542830350156,0.421974756325102,0.584486330583512,0.557047404336756,0.528425089714594,0.54720625712114,0.48470910968753,0.680058467859466,0.563367099178035,0.656115282192408,0.618745955692659,0.640019512484907,0.536829246553645
-520,cane,12m,PC,0.550123359135574,0.568756316246832,0.406070830162727,0.469040703920125,0.589770527055648,0.436765822931921,0.566588115402251,0.419393495085425,0.581937338087244,0.551796276399245,0.526683200424648,0.546627280320809,0.48501307615362,0.681996529414376,0.559784202434725,0.657573551732154,0.62543444634199,0.642389250765518,0.537559967448835
-510,cane,12m,PC,0.551116701590015,0.574090049315241,0.399312039401878,0.477897954507946,0.582207975784225,0.448021304447511,0.566591158439,0.417289050418265,0.579666951170036,0.546214432845167,0.523873525478997,0.54591285961751,0.485336636015421,0.683959806682567,0.556858320782638,0.657192577159596,0.631577702776395,0.644706182756249,0.538812380126301
-500,cane,12m,PC,0.551533672737329,0.579282250527218,0.395005675530019,0.487254074487966,0.575410544933356,0.457239855852842,0.56655863094026,0.415994064109552,0.57765307437183,0.540326696396307,0.519930033429083,0.545075844481663,0.486501032705199,0.685701786240032,0.554691329557652,0.655479463385767,0.637118829095171,0.646857954707153,0.54050827810468
-490,cane,12m,PC,0.552126210697914,0.584253680195359,0.392134700811823,0.497048768061934,0.56944496082619,0.464574340412792,0.567357045164946,0.415908998567032,0.574400047239275,0.534881851951311,0.515459372263092,0.544340634124407,0.488667405701467,0.687170877193893,0.553685751081274,0.653121184017657,0.641362917693931,0.64858315961066,0.542480542676787
-480,cane,12m,PC,0.553293549371628,0.588107588096672,0.391296279384263,0.505877033596277,0.56520743336678,0.470137598010057,0.569723443128678,0.416749057857064,0.570839718949522,0.530253988367338,0.510792379087568,0.543368249343653,0.491477895233282,0.688301419541665,0.553073133496266,0.649707643115058,0.64444470025612,0.650091070500871,0.545257136397217
-470,cane,12m,PC,0.55532301092234,0.590664318485519,0.392507151060227,0.513492705720286,0.562575958501229,0.473508418615867,0.573049438871758,0.418154147599476,0.567979684070664,0.526130759367408,0.506882331663366,0.542168639648646,0.494631618907127,0.689017949983682,0.551991152033063,0.645006901179173,0.64666218612282,0.65127445291499,0.548742461994627
-460,cane,12m,PC,0.558249944294973,0.592385426286656,0.395474041919531,0.519251424293172,0.561420568283698,0.475327472063232,0.576952174265008,0.41996202585408,0.565589837081424,0.522605760133975,0.503930355786291,0.540865709616747,0.497437946590413,0.689186321791125,0.550109234398389,0.638946091539455,0.6482580645573,0.651742225786761,0.552365071333179
-450,cane,12m,PC,0.562064940551678,0.593727980143334,0.400012312677296,0.521973914817478,0.561574065555862,0.476677573396513,0.580786716033053,0.422107053934826,0.563612608353531,0.519550045404868,0.502332725393189,0.539569329241436,0.499900119970168,0.688805424849367,0.547758586683731,0.631859104613415,0.649312834602781,0.651528479789567,0.55608697154463
-440,cane,12m,PC,0.566524854648208,0.594957374982427,0.406500326845931,0.522612804506803,0.562777698578513,0.477627094789975,0.584553398310081,0.424784757795085,0.561092256969133,0.517620952396473,0.501624425523264,0.53832561490388,0.502348516936994,0.688229552398548,0.545243702470746,0.623879322656195,0.649374442196018,0.651034513342616,0.560026601803592
-430,cane,12m,PC,0.571797485510142,0.596294574279108,0.413873728392629,0.521833934700718,0.564913828890509,0.478239195683154,0.587256521842899,0.427670791399913,0.558760725444824,0.515816092969543,0.50241624489761,0.537176127792247,0.504899149418135,0.687879429421512,0.542941429083367,0.615095535357428,0.647816749905071,0.650536074642308,0.563214624962079
-420,cane,12m,PC,0.577476904056511,0.59769956528321,0.421826306316596,0.519880307274049,0.567493938061545,0.479483532927841,0.588024034232306,0.430050030953747,0.556197572063788,0.513430276913213,0.505525429454672,0.53631276806008,0.507827641775143,0.687819940603333,0.540634227857876,0.606362097572891,0.644568172682726,0.650702199162254,0.565531243226061
-410,cane,12m,PC,0.583242392761374,0.599859797756632,0.430967503256176,0.517133529503694,0.570276670179237,0.481686931267754,0.586495558044503,0.43173647372756,0.552889349008162,0.510286284324682,0.510183180006386,0.535628510015964,0.511078171504295,0.68754636020123,0.538423820567276,0.598591245315328,0.640437330738092,0.651274622998711,0.567026427371396
-400,cane,12m,PC,0.588676686863781,0.60224253056386,0.441647315792008,0.514369758385658,0.573005723498948,0.484485614884447,0.58291323997052,0.432852648730778,0.549169289348744,0.506739845980846,0.515234554239085,0.535318735552497,0.514888739598231,0.686836982446138,0.53643467242689,0.591981127267673,0.636039462474877,0.652247652195404,0.567982683220643
-390,cane,12m,PC,0.593648591846102,0.604625510895193,0.452533304224525,0.51272796500841,0.575636443080412,0.487686870267136,0.576837514213815,0.433693366082241,0.544649326185074,0.503479318527376,0.520297366646707,0.535810258585089,0.518743953825351,0.686159424369475,0.534269999312452,0.586356204757121,0.631538307714644,0.652793473178551,0.568591368368615
-380,cane,12m,PC,0.598261534669411,0.606646578757321,0.461927313595985,0.512946655807972,0.578610749732464,0.491726203717014,0.569436732123259,0.434149438083647,0.539129707273432,0.501248383735326,0.524469962057504,0.53687555750948,0.52267699923987,0.685720283814575,0.532474589173504,0.581671631413501,0.626740671983932,0.652812758465664,0.56920213625439
-370,cane,12m,PC,0.601976152160468,0.607633165293306,0.469984469166572,0.514394378340101,0.581697404390553,0.497275334391549,0.561255728460079,0.434229114378387,0.533895437618585,0.500271097171014,0.526761255038253,0.53807816318071,0.525962105544398,0.685521853185854,0.531038334016647,0.577170285069558,0.621754498196667,0.652372465577673,0.569395381381254
-360,cane,12m,PC,0.604323192201295,0.607710847754094,0.477230090467566,0.516672229942504,0.584844657095322,0.503844063990183,0.552084176981233,0.433580038768558,0.529866486629476,0.500862959563491,0.52778066501984,0.538777253082417,0.52840082930947,0.685406663055227,0.53022375831602,0.572070626296223,0.617180160151116,0.651800002081515,0.569329000589589
-350,cane,12m,PC,0.60541157352334,0.607118331224234,0.484465683476677,0.51929270097807,0.58785802350808,0.510324037948873,0.542176199323546,0.432102535828175,0.527323655454027,0.502469486809432,0.527741783252483,0.538836859887467,0.531280232901731,0.685163120763181,0.530684534714223,0.565607414072081,0.612141102445473,0.650836673769189,0.569441416295772
-340,cane,12m,PC,0.604863055252638,0.60558316512003,0.4909379541026,0.520905498828587,0.590435105089861,0.515706082862811,0.531515019130273,0.429755503836054,0.526861712514536,0.504538647013817,0.526701397118582,0.53791624615177,0.534171790087426,0.684978334688065,0.53252898796054,0.557884584273497,0.60670472994388,0.649338520341925,0.570053898332729
-330,cane,12m,PC,0.602644895322694,0.6026944305564,0.496216625493444,0.5210584680881,0.592585431243602,0.519597790160167,0.519225150701563,0.426671198651439,0.528685708282037,0.506692056533598,0.5239532818302,0.536171530896357,0.536301421298259,0.685049113902748,0.535441375035559,0.548481891126575,0.601727298837506,0.6471234493516,0.571286373677952
-320,cane,12m,PC,0.599432349491082,0.598456167363925,0.499661521028323,0.520191147809314,0.594681929067986,0.521599082929973,0.50558259989751,0.423045373066035,0.532313106150416,0.508884098842584,0.520343293606954,0.533573218630529,0.537672994353403,0.685045519395171,0.539251202422878,0.538045991304168,0.597538458551822,0.644027327126694,0.573456021919391
-310,cane,12m,PC,0.595998729629761,0.593235192860805,0.500866453901313,0.518418266260753,0.596482014673615,0.522436036209216,0.492103982535912,0.419309744459393,0.537144323816441,0.51077333557721,0.516855930410964,0.530552345225715,0.538042801878769,0.684855832032677,0.543487188645646,0.527982309632749,0.594948088472044,0.640189837759346,0.576176474477443
-300,cane,12m,PC,0.592320680614914,0.587963123456515,0.500199140115381,0.515489226527778,0.598255259859461,0.523256940879398,0.478709161096784,0.416502901740556,0.542194137568622,0.512793660155631,0.513797493582696,0.52734166157014,0.538120601078322,0.684742703364967,0.547804037849107,0.519204519446385,0.594164132528293,0.635530283820255,0.579326516253158
-290,cane,12m,PC,0.587626687262223,0.582961519307206,0.497259477377684,0.511539809758912,0.600141654874664,0.523970702702881,0.465627044538686,0.414539664560293,0.547559233000283,0.514930241272759,0.511927905346714,0.523793627575738,0.538140365474343,0.684513979449695,0.551777343714568,0.511850374280785,0.595006251150369,0.630390061938962,0.58268720794221
-280,cane,12m,PC,0.582195081405856,0.578574032957388,0.493424589448533,0.506737643324456,0.602189598433573,0.525543073575185,0.452551224569871,0.413307110725449,0.553099006491579,0.516580931930239,0.511520902294913,0.519638333131977,0.537353994457177,0.683680273806803,0.554649041830004,0.506160538039621,0.596412193398945,0.624271182517393,0.585639203426173
-270,cane,12m,PC,0.5765492119846,0.574707913202919,0.489801268925889,0.501224909510061,0.604001567279249,0.52677732466091,0.439842350600718,0.4127851484243,0.558928819022337,0.517054039036606,0.5125278888083,0.514807783664087,0.536163449636199,0.682818844131513,0.55707936968546,0.503000198065084,0.598057128314916,0.61752597822847,0.587801794340744
-260,cane,12m,PC,0.570909809178804,0.571391396874909,0.48673839595988,0.497103080216169,0.605178737064375,0.526635900378184,0.427562874940128,0.413217146589995,0.564303082182422,0.516888952528716,0.514989074089513,0.510106510637267,0.534366708604566,0.681359090113502,0.558878172157306,0.500840217804182,0.599082726677452,0.610254751340493,0.589461771156154
-250,cane,12m,PC,0.565463391006706,0.567851802856911,0.484174637015498,0.495134454388207,0.605653079897957,0.524845380262694,0.416002688550334,0.415556995525536,0.568821780066256,0.516067084729068,0.518789706489883,0.50562049718008,0.532362865727112,0.678978399377057,0.559848350926133,0.500679912961865,0.600343925589655,0.602765061167598,0.590304885385907
-240,cane,12m,PC,0.560193405260378,0.564011582442008,0.481907233812907,0.494214986482408,0.605525280677761,0.521395539017312,0.405468892462734,0.419551174643779,0.571932610602075,0.514689332499866,0.523586775381828,0.501419160069103,0.530266929292867,0.675496022344676,0.560075379621594,0.502678875184413,0.600999699669158,0.595456828185548,0.590219030246854
-230,cane,12m,PC,0.555020514924906,0.559939068826337,0.479947322423271,0.493849336229441,0.605131395141335,0.516445830181752,0.395798831699054,0.425296824893074,0.572106768147343,0.512338706594308,0.529235266880326,0.49801210072206,0.528013741510786,0.671198550736524,0.55967336135936,0.506953777531205,0.600503329442498,0.588129117812252,0.588929172209061
-220,cane,12m,PC,0.549626592240952,0.555712522297187,0.479225302366629,0.493577621615539,0.604505402536883,0.510562800433792,0.386799721229498,0.431801749223505,0.569268465259316,0.509699457200355,0.535542064808371,0.495576829002068,0.525748733227429,0.666138014211743,0.559003634498917,0.512571229057373,0.598313706830057,0.581161142280031,0.586154393525264
-210,cane,12m,PC,0.544346327078043,0.551670797395156,0.479621805896426,0.493762029442295,0.603326801754916,0.504465985501977,0.379085939929131,0.438859062349548,0.565110739477848,0.506609224104236,0.542391853524789,0.494280291084808,0.523403185549706,0.66035233602559,0.558628518407292,0.519249613161575,0.594360813675034,0.574401594820218,0.582274245481691
-200,cane,12m,PC,0.539579268818308,0.548442056729358,0.48131502149081,0.494592812310444,0.601485787258104,0.498348916194555,0.372449156379601,0.446253999298995,0.560346190938358,0.503413698648745,0.549091438563417,0.49402014726521,0.521265273474432,0.654224987037361,0.559083905219063,0.526142559044843,0.58875313838564,0.56834348163774,0.577510713810421
-190,cane,12m,PC,0.535256419170099,0.546789358066303,0.484226377197503,0.495485457732421,0.599358036167191,0.491152901413871,0.366753561678595,0.452966994723042,0.555345098989759,0.499779474072652,0.555354111535935,0.494675808330987,0.518943404133849,0.64796531221831,0.560194275994227,0.532486910282519,0.582293371732156,0.563437283170924,0.572273400487534
-180,cane,12m,PC,0.531127906581144,0.546886054618943,0.48774513832167,0.497394079108903,0.597513855339416,0.483750543584404,0.362755081340496,0.458975729960192,0.550489197632113,0.495843369512528,0.561408749422282,0.496257198906398,0.516898315252454,0.641961327479352,0.561460900000985,0.538616028381428,0.576249714861229,0.559867315967191,0.567104145479382
-170,cane,12m,PC,0.526927547543187,0.548927921093702,0.491248161901827,0.499836008809829,0.59599487687667,0.475857672817337,0.361093541316663,0.464838211448058,0.546230887803814,0.491637092844612,0.567114293734271,0.498096782796763,0.515311180451168,0.636271526237944,0.56342403838595,0.543707061993504,0.570547247226045,0.557182504057863,0.563023243880085
-160,cane,12m,PC,0.523133776068664,0.552658381210509,0.493778565571182,0.502535506436111,0.594723651488527,0.467643867894101,0.365647883139037,0.470257051969548,0.542513461768529,0.486927945475149,0.571898973193071,0.499878940090232,0.51400457350197,0.630822384377609,0.566036189733619,0.548062723643612,0.565126233880751,0.555076697488229,0.560570868109896
-150,cane,12m,PC,0.519528657856812,0.558058008255359,0.49569735151465,0.505772661914212,0.593785537125815,0.458557343240723,0.37264621052728,0.475659058991875,0.539817117979532,0.481962475263698,0.575482633670346,0.501354916761011,0.512746954038901,0.625054412836429,0.569950500384286,0.55191347155133,0.560363338857977,0.553565701043598,0.56004129067991
-140,cane,12m,PC,0.516011238153001,0.564816717423246,0.496547312423148,0.509637435424598,0.593677089111079,0.448288286533307,0.379706211017137,0.480547010327365,0.538040063083902,0.477088789826632,0.578245169003284,0.502680311035682,0.51098761020563,0.619415668215696,0.575258942207714,0.555603512776744,0.55622274183484,0.552459406823687,0.561099124339563
-130,cane,12m,PC,0.513076806522959,0.571636685922992,0.495793896750942,0.513910549562655,0.595301833882356,0.437194198770097,0.38593505344735,0.484903921300636,0.537317539331461,0.47219674697088,0.580086109873912,0.50382608126263,0.509144913726173,0.613754171913206,0.581684444757608,0.558289526375773,0.553055813538413,0.551755785901629,0.563251516840501
-120,cane,12m,PC,0.510838691977043,0.578186581736597,0.494322136031242,0.517539805777394,0.597951381343371,0.426816196261014,0.391208963579253,0.488679709009738,0.537632490843947,0.467437582412045,0.581271563409541,0.504977937585007,0.507165577706405,0.60817899293385,0.587585260793441,0.559139357632714,0.550913319459573,0.551421469268762,0.566343467823221
-110,cane,12m,PC,0.50962789215567,0.584380243106819,0.492614961529443,0.521128081232118,0.600865045266313,0.418029702000839,0.395680215806373,0.49208505419149,0.538818497283886,0.463423138287131,0.582393010688837,0.506420916544473,0.504818815432341,0.602688006043692,0.592046474314425,0.558763173433547,0.549413654328124,0.550730452271584,0.569973952904853
-100,cane,12m,PC,0.510169473311912,0.589923797317766,0.490344509892219,0.524656969012441,0.603397133058124,0.411179477297237,0.3990870541669,0.495184357281856,0.540900233939128,0.460343075306722,0.58265701273767,0.508096951099519,0.501854301173925,0.597251999474783,0.595013963483205,0.557398052330273,0.548332992089509,0.549441117520489,0.573675503083304
-90,cane,12m,PC,0.511699781714458,0.594604103422284,0.488245335582257,0.527584441465312,0.604558372812103,0.406108038537642,0.401327599572555,0.498154123489874,0.543206194112003,0.45789528173676,0.582074581377197,0.510451408641795,0.498191535704716,0.592052564191292,0.5957583158907,0.554234599910034,0.547766493107014,0.547696283006812,0.577420034637688
-80,cane,12m,PC,0.513693977329106,0.598383825561788,0.486901131107011,0.529774058395926,0.603826383545913,0.402837791842784,0.402677077085295,0.500589330229062,0.54652482332448,0.456655367953186,0.581070816507033,0.513833292480752,0.494395189158,0.587086169762332,0.594954075139023,0.549443582551836,0.547557195116466,0.545825209185842,0.580629174923838
-70,cane,12m,PC,0.515105652132836,0.601310949592914,0.486895383278545,0.531951227110224,0.601312063332249,0.402234145890139,0.403948135713132,0.503043548236389,0.550408622139972,0.456619483667732,0.579980475971918,0.518283190360632,0.490556904787966,0.582794646002722,0.593399743301861,0.543604093063002,0.547623620337685,0.54342049858267,0.583248936385468
-60,cane,12m,PC,0.516125231410381,0.602873156306224,0.488136003538643,0.534393172657503,0.597839754190969,0.403969342337968,0.405201369171755,0.50591176026991,0.554736201983529,0.458143232201745,0.579145847750716,0.523232772861856,0.487580651155187,0.579382611265481,0.590283492510863,0.537186877567754,0.547336318423765,0.540395144009591,0.584755845004559
-50,cane,12m,PC,0.516577880583862,0.603606500376489,0.489692072247307,0.537170293033145,0.593499075140365,0.408118715184739,0.407855514366378,0.508559259573179,0.559443968059937,0.461156554271643,0.579355213556914,0.528542483203774,0.486136738970929,0.57632501795493,0.585782725585041,0.530393611090041,0.546483638182728,0.537196504001515,0.584767892753224
-40,cane,12m,PC,0.516672502222698,0.60399884278467,0.490316831243285,0.540706167755124,0.588396340754814,0.414027884850878,0.412160797132297,0.510294102415767,0.564084014563728,0.466008677302945,0.581404937804418,0.533556495403095,0.486292829515856,0.573810263939546,0.581274835389281,0.523144097771091,0.545524109355498,0.533880308673458,0.583552668859945
-30,cane,12m,PC,0.516628037284228,0.604149125360998,0.490787364900184,0.544523914449631,0.582898463234241,0.421623802426788,0.418249730105527,0.511435884130284,0.568301927818893,0.472142793694165,0.585351101445644,0.538514413019466,0.488665533610935,0.57203079098044,0.577511728450146,0.515707609682462,0.544542251624944,0.530642969304704,0.581808737752183
-20,cane,12m,PC,0.516498921767187,0.603689520842659,0.490222937333706,0.548384766101247,0.577163922740145,0.430400003712709,0.425322615778814,0.511787135165383,0.570790776429419,0.479165417932884,0.592049561699932,0.543013437207232,0.493072881794316,0.570688837211095,0.574673532311306,0.508191655238142,0.543412772458064,0.527099957150854,0.578538866041923
-10,cane,12m,PC,0.51590138849065,0.602597520289649,0.487660312207636,0.552551471098736,0.571401593786914,0.439540889500248,0.432321408959625,0.51163296467348,0.572640632956063,0.486938219544023,0.600767664293315,0.547022365925327,0.49855795476556,0.569784352910685,0.572436679600027,0.501038985085079,0.542202233481322,0.523710314486994,0.573310218555089
0,cane,12m,PC,0.514568568518522,0.600911151328757,0.484353098227906,0.557104887542898,0.565718232623191,0.448604467201409,0.43808273884383,0.511148194822439,0.574436313455619,0.49451768629312,0.610121773404437,0.550272803424065,0.504117848325444,0.568811506618561,0.570357174367393,0.494340255057643,0.541856032161161,0.52111361252989,0.567268895301359
10,cane,12m,PC,0.512855002940085,0.598443835182412,0.480470303919681,0.562509234973987,0.560279042371211,0.457902310488086,0.4426541525919,0.510528344309552,0.575556184230211,0.502179384381501,0.620452723660106,0.552510944804384,0.509576647364564,0.567338140173176,0.568399297638428,0.488221903033353,0.542811813869833,0.51939684344327,0.560537237889207
20,cane,12m,PC,0.511080757561174,0.595291922713811,0.476675905896579,0.567939760313068,0.555315902963968,0.467418919531196,0.444613785659463,0.509943990784188,0.576786367353748,0.509866405860211,0.630802479959886,0.553777254401726,0.515027007049695,0.566167684389331,0.566540188563353,0.482265059074464,0.545074154508076,0.518627259864735,0.55403195634722
30,cane,12m,PC,0.509776120837306,0.592132962624471,0.473751305007071,0.573235313329765,0.550946741192797,0.477750484092108,0.445302505475767,0.508975173816168,0.577960393698576,0.517568533186337,0.640474699588936,0.554640885102168,0.520514213204673,0.56546617645073,0.564875097447634,0.476024936192887,0.548229712422092,0.518284412160592,0.547764304672999
40,cane,12m,PC,0.508625152162044,0.588072066208321,0.47112041670419,0.579242260727138,0.546959717680473,0.488385830950762,0.444511159030017,0.507905429710036,0.578549123726862,0.525321650257606,0.64872891417405,0.555361792233669,0.525624576517611,0.565082631875775,0.56274816802324,0.469540244788141,0.551936476976259,0.517596335001144,0.541637183349296
50,cane,12m,PC,0.507171472161646,0.583215107216609,0.469152928025979,0.586799503937464,0.543438738615169,0.497494066868526,0.440579194157953,0.507134938831222,0.578994811117807,0.532610996306496,0.655312489763325,0.555664980170045,0.529827623664677,0.56572988639166,0.559589338446938,0.463348309321072,0.556230311143,0.516821311530593,0.535952206368517
60,cane,12m,PC,0.505619653170432,0.578287188005883,0.467613511037976,0.595336406004027,0.540583271366108,0.504981832576475,0.435655721297182,0.507363884309962,0.57922209620774,0.539859479111524,0.660159948756743,0.555674729147456,0.532865448153914,0.567001030263876,0.554702618777895,0.457901564463629,0.561327487308026,0.515394141325396,0.530749465292353
70,cane,12m,PC,0.503918933558159,0.573643370396159,0.465880854228085,0.604516653990088,0.538531600810741,0.511027329665885,0.430500034066585,0.508866916974128,0.578114898153292,0.547114155085673,0.663179441587779,0.555424937050008,0.535373361111175,0.568057781125628,0.548609861784783,0.452304919709899,0.567334049240309,0.513658107947797,0.525735012331805
80,cane,12m,PC,0.501560223993324,0.569650509788092,0.464055406669244,0.613755139654165,0.536946773079619,0.515531626602193,0.425575522565952,0.511239325077824,0.576014629316345,0.554521492769387,0.664295597095577,0.554894707255645,0.538722834645736,0.568964948627161,0.541678342205118,0.44649130572705,0.574836439470364,0.512227676230739,0.520903272254694
90,cane,12m,PC,0.498792303477709,0.566354587225297,0.462518050219179,0.623212086757132,0.53543031143537,0.519025873795195,0.421126558115541,0.513975047391928,0.573004947989189,0.562053558473463,0.665209875543432,0.553971529299149,0.542838321981596,0.569679126337974,0.534567825712862,0.440517383231752,0.583062737944504,0.511190568624408,0.515845355028517
100,cane,12m,PC,0.495117715235556,0.563826772013065,0.461087821672105,0.632485168898507,0.534348113523769,0.522028291821538,0.417728067058157,0.51645898177332,0.569907097835237,0.568961498870822,0.666474077675776,0.55254931323534,0.546425441624748,0.570266306896757,0.527928161053079,0.435559499438921,0.591034062741839,0.509940549274781,0.511064980438427
110,cane,12m,PC,0.491746122951538,0.561800960167914,0.458279611160285,0.64066808956165,0.533401435708879,0.525253127047392,0.415758805627605,0.518776372896349,0.566787518745314,0.574506859731918,0.667357048380175,0.550836101977943,0.548814562980477,0.570282039901305,0.521857079646188,0.43218615470006,0.597822211590145,0.508481191574419,0.507210154058354
120,cane,12m,PC,0.489182961302487,0.559747908009282,0.454006073398717,0.647241227820333,0.532627514655052,0.528534148213968,0.416698838823541,0.520872325184195,0.563416864351009,0.578713476553242,0.66687570698326,0.548783200308371,0.549383139943297,0.570196939699084,0.5168364313592,0.430706694153643,0.603156053212009,0.506616209826864,0.504388866429827
130,cane,12m,PC,0.487387610929251,0.558288336542013,0.447934086607376,0.652129187600195,0.531748206862124,0.531468266336074,0.42067248364952,0.523282144078163,0.560170075250154,0.580809263347306,0.665435207121314,0.54646081586614,0.548385197954926,0.570291456763703,0.513480978941188,0.431594908789156,0.606677185380099,0.504824566179817,0.502192310282538
140,cane,12m,PC,0.486246886213099,0.55701642964235,0.442220544374425,0.655649215476085,0.531018802878896,0.533538152390149,0.426626204492168,0.525626689485224,0.556828081488747,0.581046754030687,0.662531866536183,0.543602511382918,0.546011516241561,0.570806492332996,0.511074446676705,0.434001237597589,0.60804907560136,0.503223600910713,0.50058205727389
150,cane,12m,PC,0.485357214421529,0.555604311595276,0.436545215767221,0.657014281923591,0.530437873664437,0.533902729378316,0.434527717677193,0.527930723123235,0.553010406424424,0.580761229918421,0.657860476123977,0.540498474983718,0.542473551761149,0.571674249453854,0.508860294525117,0.437841602447214,0.608227604745564,0.501149985070807,0.499831271712432
160,cane,12m,PC,0.484891772496609,0.553696347683515,0.430265257314829,0.656568643562866,0.529930571480673,0.532785658829825,0.443712903205737,0.529914392565021,0.548968787003727,0.580586983766152,0.651588438954533,0.537682601269715,0.538711797975601,0.572664513989874,0.507171417492548,0.44419612790048,0.607579413076478,0.498923259559837,0.499875433673187
170,cane,12m,PC,0.485351599445862,0.551324653628043,0.423036941839095,0.653912686559569,0.529560189586356,0.530663921525372,0.454580695817542,0.531311097422641,0.544118504024923,0.580659068788842,0.644139205064657,0.535920287763379,0.534986722010872,0.573846648709359,0.506073025776633,0.450795555222129,0.60603962613137,0.496615617270157,0.500908919825717
180,cane,12m,PC,0.486715661676784,0.548332740666206,0.415840445950416,0.649609664013451,0.529108448599149,0.527616971428547,0.467742466047439,0.532205452319997,0.538844886771393,0.581465863732731,0.636494087823339,0.535249666119091,0.531655125006661,0.57551734164091,0.505847676827849,0.457417035829791,0.604191399837297,0.494703324738419,0.502676116376456
190,cane,12m,PC,0.488927227140463,0.544594431533113,0.408228827491146,0.642739053352017,0.528127765133666,0.523947575316043,0.482360126267265,0.532702534773181,0.533894343380742,0.582731941411728,0.628974781818792,0.535998981929674,0.528231954072658,0.577827828401317,0.506513024682169,0.464529785544035,0.60213866843333,0.492906401906562,0.504617725484801
200,cane,12m,PC,0.491254387548903,0.540433046934139,0.400163228637561,0.634035883292451,0.526700377346185,0.520925975072573,0.496873744501758,0.533168913721992,0.529206514187265,0.583544040318515,0.621725133217796,0.537691828071115,0.525565143848424,0.580474386631891,0.508655767852155,0.472000675578445,0.599781214236584,0.490722606102466,0.505962896320531
210,cane,12m,PC,0.492951237982833,0.53603665116553,0.391104041185566,0.624283103254698,0.524948280379347,0.518888737295391,0.509256758529388,0.534082594939985,0.524752361387932,0.583696313476826,0.613930455631148,0.539393588588835,0.523642191515988,0.583467393695625,0.511608813872062,0.479094145549756,0.597544788717455,0.488341049650968,0.506467752400267
220,cane,12m,PC,0.493672190155541,0.531521319992249,0.382488832684508,0.613938518742276,0.52315266007919,0.517754667002797,0.519410396808047,0.535967130993219,0.520008804502431,0.583722460935891,0.605877677861157,0.54091288017161,0.522664548645322,0.587384410319449,0.515526481090581,0.48642734157216,0.595429384140204,0.485872906907639,0.507720109608404
230,cane,12m,PC,0.493143507993071,0.526957171068824,0.375099150521968,0.603613886322431,0.522335433469571,0.517819051812854,0.527040683188158,0.538396526834534,0.515199063491816,0.583084901393077,0.597698310089641,0.542417006975153,0.523585421961823,0.59146581454118,0.519863959407383,0.493889447682306,0.593384397409891,0.48378373201643,0.509913384620518
240,cane,12m,PC,0.491601673504239,0.5230746917634,0.369311695339447,0.593801895555052,0.523023053404443,0.518872334427419,0.533539325815639,0.541493520485589,0.509983625463202,0.581056348675501,0.589575270488779,0.543679471199193,0.525326855075828,0.595373051978004,0.524033942003961,0.500632949872658,0.591853503385751,0.482065352105264,0.512368656922735
250,cane,12m,PC,0.489820829267016,0.519650975325371,0.365644288849225,0.584925382275555,0.524886861381357,0.520736053358278,0.538928691961343,0.544859921530417,0.503885944007507,0.577652460890889,0.581563691636378,0.544497860532516,0.527674327922505,0.599098770186874,0.526961668693617,0.507275482303447,0.591064412078818,0.480838276111512,0.515169865469681
260,cane,12m,PC,0.488027124060511,0.516434737046044,0.363700232773314,0.577268782683229,0.527911838580543,0.522957290231629,0.543521935696181,0.548247522712875,0.497364841969321,0.572891159495782,0.574257953530025,0.54499950762079,0.530832161902808,0.60257306657001,0.52949085191968,0.513391067075518,0.590529640761873,0.479993407781842,0.51809547378993
270,cane,12m,PC,0.485979756761052,0.513855526739681,0.363309380220801,0.570960812849892,0.532281999154798,0.52587889204986,0.546901241844971,0.550728081374605,0.490898731887985,0.566702932146712,0.568013356275395,0.54523879015128,0.534681287231918,0.605744704341692,0.532103990227594,0.518692279088264,0.590589412657198,0.479716478980242,0.521487214866198
280,cane,12m,PC,0.483592213182314,0.512014486972662,0.364283391557178,0.566096010286608,0.538215497912634,0.529694733758658,0.548529405929888,0.552359524526117,0.485031793854408,0.559991148517286,0.562814003409138,0.545294861770852,0.538863852261215,0.608641403552052,0.534969987148914,0.52338175688492,0.590781610511446,0.480372789468731,0.525152911253064
290,cane,12m,PC,0.4806002366501,0.510833218678226,0.366437060723194,0.562971934796164,0.545343283599072,0.533728003109161,0.548350824508056,0.553274233313391,0.480479774520607,0.55255181465951,0.559258285212774,0.545337133494552,0.543474030655884,0.611285364705111,0.537919568613251,0.527001011054374,0.591151860399841,0.482444391812831,0.529410661470378
300,cane,12m,PC,0.477330099216052,0.510174295641867,0.369484675538594,0.561786274661273,0.552878455884099,0.538040774878347,0.545237025895187,0.554123782238726,0.47790604858596,0.544609343021824,0.557471260481781,0.545270569175962,0.547969897409268,0.613267123171777,0.540655875970382,0.529817852313726,0.591643947235074,0.486122175246284,0.534175878828974
310,cane,12m,PC,0.474241121408899,0.50999554799659,0.373161475530178,0.562226034463222,0.560396470472672,0.542278971865567,0.540112262326681,0.555420728848758,0.476977746293249,0.536358091512632,0.557772011379372,0.545129969427755,0.551995416876637,0.614187847234251,0.543583573069522,0.531615935851086,0.591729686763048,0.490807235454803,0.539375930308992
320,cane,12m,PC,0.471579889407234,0.509763702973259,0.377708413164364,0.56350065810128,0.567977793660203,0.545344400002387,0.533759434039169,0.557124496757869,0.47698228557161,0.527877975012056,0.559907746011397,0.544496031073096,0.554985820899508,0.614112658251246,0.5468728210937,0.532223472713941,0.591252726613037,0.496083576510636,0.545079818557294
330,cane,12m,PC,0.469268500761195,0.509440852533397,0.383405567864884,0.56605792139569,0.575289075918131,0.546720736912523,0.526261000776203,0.558704411552086,0.477727516533567,0.520145780374685,0.562995063913221,0.543357983991794,0.556717540689734,0.6130471051385,0.550220662792436,0.5322797241908,0.590517908200011,0.501499800679208,0.550511158573345
340,cane,12m,PC,0.467520557717774,0.50929152872196,0.390292661553948,0.569684481850494,0.582396380656206,0.546011913898552,0.517716775876377,0.559639696828522,0.478793911442478,0.513269427215879,0.566283046931274,0.542019512213504,0.55748920881131,0.611237572592923,0.553617546761584,0.531849398908363,0.590050687533868,0.507312770723918,0.554815200098463
350,cane,12m,PC,0.467479757027646,0.509501000215142,0.397207061303307,0.574707791961045,0.589120931128876,0.542923934820153,0.508247018737903,0.560867115687311,0.480569627039284,0.507014052571695,0.568961638763941,0.540188719683346,0.557389082267323,0.608838122336453,0.55673821816868,0.531718007337865,0.589531255898358,0.513062857080146,0.558001427969851
360,cane,12m,PC,0.470325930968256,0.510399764967165,0.403602912528343,0.580644064666839,0.595692677230943,0.538461115941251,0.498052188907018,0.562580712267299,0.483511198285937,0.502197890502211,0.570719091291432,0.537988068768441,0.556477229949892,0.606117550821694,0.559511345174241,0.532781833869654,0.58920716220043,0.518606843102833,0.559752917028132
370,cane,12m,PC,0.475571213206123,0.512211415436228,0.408017769285872,0.58618516286049,0.602168613359121,0.532770929399947,0.488224575851077,0.565019000751472,0.488884522177776,0.499555579345383,0.571330327585984,0.535701232431463,0.555025853673822,0.604030801885115,0.562605255121868,0.534943748480347,0.589192334159535,0.523966717891219,0.559656248696732
380,cane,12m,PC,0.482627316254731,0.515189607924465,0.410564193849136,0.59138893156654,0.608574194994406,0.526465777170252,0.480796685684869,0.568002916360006,0.496089088863322,0.498827520150401,0.571209254839959,0.533497349184204,0.55383461128416,0.602649157135114,0.565882717377601,0.537890727199159,0.58944844152185,0.528957435680211,0.557811466847458
390,cane,12m,PC,0.490500431024616,0.519617668686694,0.412519741865077,0.59606761808361,0.614799883927105,0.519623851200089,0.4739691815707,0.571162056610835,0.503126511702681,0.499146817257512,0.570762811256111,0.531049611620295,0.552716114500117,0.601998922761899,0.569064633492307,0.541416154603813,0.590025707068036,0.533619718295351,0.555082896401357
400,cane,12m,PC,0.498354972683137,0.525441813220694,0.415118006477837,0.600038521807597,0.620416079447553,0.512215744461421,0.468127082683412,0.574072013163677,0.50937258904339,0.499377352122178,0.569663457238014,0.528260917302205,0.552080602289641,0.601917876092939,0.571893955913006,0.545276136561186,0.590770844928446,0.537844604169764,0.55148960726635
410,cane,12m,PC,0.506256946065818,0.532907423756419,0.418864994195997,0.60362600309892,0.625453030222214,0.505193000644127,0.464197431347147,0.576669348325477,0.515394736677667,0.499678542564647,0.567747169183783,0.525440301280887,0.551607665415143,0.601634190311801,0.574530710665054,0.548503452957566,0.592582008812552,0.541296235262035,0.547405030030416
420,cane,12m,PC,0.514129168117037,0.541625407427177,0.423362265657382,0.60690710966612,0.629790906219423,0.498959350315264,0.461861649502998,0.578684839472387,0.521670489412688,0.500356347922013,0.563707155998934,0.522279738329253,0.551675033158416,0.601056495446115,0.577307121985588,0.550263237466244,0.595020364791577,0.543979640609777,0.542818082773762
430,cane,12m,PC,0.521967775566604,0.551484073735201,0.427974549858314,0.610573219265828,0.633363427265217,0.494003919009914,0.460638462305666,0.58035984675939,0.528226913800692,0.501451667706929,0.557891084688536,0.519268078917745,0.552328482142858,0.600122576296568,0.580676797359887,0.550514702690438,0.598076187931853,0.546047147740222,0.537705011979849
440,cane,12m,PC,0.529389416999519,0.561964874325687,0.432756829405256,0.614576360259555,0.636067548617259,0.49064730035733,0.460401749100814,0.581885213950002,0.534560642859845,0.502691426547506,0.552165782875816,0.516672288565034,0.553087448887166,0.599395188007112,0.585408685353228,0.549315187879013,0.601223329606778,0.547922890213889,0.534187689843558
450,cane,12m,PC,0.53583623258153,0.572121670482883,0.437906285143551,0.617959288015374,0.638090289190667,0.489218551193748,0.460300891537536,0.582839833769882,0.541029072571253,0.503730509764079,0.54920506120147,0.51423068937632,0.553589176394127,0.599029100621759,0.591136133378873,0.547524721362346,0.603897027584375,0.549782675594544,0.531695600370814
460,cane,12m,PC,0.540958515535886,0.581406484784406,0.443299125868074,0.619985061834433,0.639814989159954,0.48881301996352,0.460478001707153,0.58304973716958,0.54885071731929,0.504713590110489,0.54864731606748,0.512185655438458,0.553935976437372,0.598739755244482,0.597091878295395,0.545384073474404,0.606176371786244,0.551516659935348,0.530590296968601
470,cane,12m,PC,0.545230458685199,0.590811982961161,0.448772323125639,0.620831192409861,0.64129445556714,0.488870092718081,0.461024913146778,0.582804092839229,0.557212480747831,0.506378515850533,0.549375104566326,0.51057910119291,0.553800626996079,0.598513180819497,0.602209490979178,0.54304767518722,0.60801793333422,0.552467854960638,0.530796149164705
480,cane,12m,PC,0.548498701844667,0.59931505842712,0.455309951211699,0.620488742821671,0.642732527963377,0.488865139244832,0.46146313649144,0.581778567310018,0.565081204983889,0.508929313069698,0.550319621521444,0.509215619955025,0.55298100657306,0.598235010711283,0.606225186066817,0.540891048996634,0.60879501597552,0.552609989862787,0.532355879054308
490,cane,12m,PC,0.550656894803637,0.606401685428429,0.463102327759089,0.618380255152663,0.644562818283763,0.488469725003208,0.461250623951571,0.580087605842536,0.572204570402015,0.512311716567455,0.550760844620654,0.508575445623585,0.551331898441494,0.598265799710712,0.608871826279809,0.539271388783807,0.608918267095146,0.552386477903255,0.535110018232679
500,cane,12m,PC,0.551949873951123,0.612280058023936,0.471304147815481,0.61436568174283,0.646288653567317,0.488843583844464,0.460739919872068,0.577961874332106,0.577908302231824,0.516625744754442,0.551444612603701,0.508324646923211,0.549108770794826,0.5986957861783,0.609889240436779,0.539573639650478,0.608898089916045,0.551765840832094,0.538254554360329
510,cane,12m,PC,0.552442318955055,0.616306588557568,0.478374117302588,0.608395862038216,0.647318558324209,0.489224458473642,0.459675898444555,0.575473412103593,0.58354648684692,0.522196189347328,0.552578055929894,0.509062191192692,0.546431322555205,0.599775789236721,0.609740215154806,0.542659599698355,0.607755502631424,0.550222175551705,0.541999922499502
520,cane,12m,PC,0.551991665753337,0.61896038807694,0.484509269620891,0.60113543075125,0.647536176980844,0.489751784561626,0.458308458479572,0.572842992457265,0.58852261048302,0.52771024943168,0.554239120106846,0.510520271463846,0.543041422019235,0.601190420679709,0.608149850307838,0.548017484312663,0.60568768914358,0.548311859499329,0.54647378538967
530,cane,12m,PC,0.550870913995292,0.620031268180102,0.49008810316191,0.593330490299503,0.646612178407983,0.491052397470086,0.457186240286394,0.569786145043411,0.591384028149137,0.532995240612701,0.556335367461728,0.512193550849077,0.539504802232855,0.602402700945333,0.605083477302654,0.554262743687531,0.602002456142506,0.546216141280841,0.550898484399722
540,cane,12m,PC,0.548957661960126,0.619744254810817,0.49498197002145,0.58538236979748,0.644818635693826,0.491954168123829,0.45635055579045,0.566286403721236,0.591966211036369,0.53747109072889,0.556734267531104,0.514080274423521,0.535455220140839,0.603112912650718,0.601245707507918,0.560925252333721,0.597184080662887,0.543696601874888,0.554579060563383
550,cane,12m,PC,0.546112044054161,0.618310227654602,0.499763068071175,0.577985818450734,0.642724772954215,0.492726305371594,0.456648927773294,0.56185688703974,0.590482612701042,0.540957991613644,0.555138720347941,0.516197037756872,0.530258486313429,0.603746160118179,0.596202129142329,0.567125787243532,0.592067428709592,0.540819295379405,0.557589151298212
560,cane,12m,PC,0.54208524650901,0.616346980570639,0.504929109349461,0.571438122587029,0.640236597078934,0.493972824120895,0.45731519507095,0.556744817846111,0.587695544313262,0.543908749468515,0.551279829017587,0.518387536280603,0.523877261030761,0.604560797907188,0.590155044751409,0.572047001376857,0.587305366479911,0.53778722279203,0.560514344708426
570,cane,12m,PC,0.537681032783453,0.61513649488714,0.511047088410068,0.566239722129931,0.637446989678771,0.495914867967808,0.45789770638813,0.551151386397884,0.58412560012744,0.54718183756844,0.546281484668547,0.520761876325738,0.517094405358837,0.605431338074427,0.583701065110717,0.575933156067227,0.582972906178711,0.534730764092556,0.563853075682038
580,cane,12m,PC,0.533063905022338,0.614863560752766,0.518606215092258,0.562848195005391,0.633891848740075,0.498475417030788,0.458037884594468,0.545638629499884,0.580689372198913,0.550815540283497,0.540222865764463,0.522852373870698,0.51014971504662,0.606621991761603,0.57732964172286,0.578477837077056,0.579099603106632,0.531586233809965,0.566897830538131
590,cane,12m,PC,0.529282067948869,0.615646295794385,0.527654330628488,0.560724223424074,0.629701238129834,0.501938673939281,0.457597732398592,0.540610958846953,0.578707127098966,0.554983244889212,0.533548772803791,0.524406046918546,0.502793800811421,0.608295259003962,0.57107436319833,0.578989915220472,0.575955473593059,0.528833619894212,0.570366526503459
600,cane,12m,PC,0.526490517893117,0.617251400675524,0.538423475154608,0.559618698550093,0.625204959249743,0.506815803246229,0.456925876504586,0.535681218313501,0.579333934739369,0.559279636536875,0.526094734847391,0.525405684986605,0.495041291833983,0.610566057739268,0.565465935227502,0.578331466596482,0.573470142648521,0.527011195933714,0.574826503321091
610,cane,12m,PC,0.524486790252728,0.619524740851792,0.549255228220538,0.559103599320052,0.620662064822142,0.513548042433871,0.456574162377021,0.530818229050323,0.583761092251769,0.563303131922592,0.518329054631388,0.526015104718188,0.48737441457979,0.613550576708034,0.560950916528147,0.576729749081206,0.570543472981584,0.525561123197218,0.57960537791653
620,cane,12m,PC,0.523761644380722,0.622727073740163,0.558265211592982,0.558307807393657,0.616011306403381,0.521428082698575,0.456212221539426,0.526714359937339,0.591064953101253,0.566593931789962,0.510185264325619,0.526043896851825,0.48066174009998,0.617012530248352,0.557524932519557,0.57441522229955,0.56747939012041,0.524044182779354,0.584331933772313
630,cane,12m,PC,0.523924701916179,0.626510094050768,0.564347988500676,0.558134571396863,0.611061302944705,0.528928183441274,0.455397380070984,0.52340438366354,0.600028693979054,0.56928432636128,0.501807304473553,0.526009481020423,0.475325643395512,0.620938404892936,0.555297163626128,0.571728618004015,0.563889853293417,0.522455677133553,0.588528987057706
640,cane,12m,PC,0.524265510490118,0.629901656469873,0.567374520399804,0.559353990209588,0.605925649664136,0.535135421069155,0.456135559951222,0.520608645065132,0.609804725585932,0.571286388265913,0.492982993287475,0.526068784674715,0.470341057281834,0.625120243938502,0.554103850816717,0.569112352479552,0.559573078488619,0.520418540903252,0.59211290769652
650,cane,12m,PC,0.524236442532226,0.633108182760979,0.567269340319,0.561059523583572,0.600846816437381,0.539703029195621,0.458903029014403,0.518202301543866,0.619977708700077,0.572462908761203,0.485047674970781,0.526416530866399,0.465828408888648,0.629464280227518,0.553944752373022,0.566293663532653,0.554276459817887,0.518169036578725,0.59523104763972
660,cane,12m,PC,0.523540145760177,0.635831656525475,0.564532529620809,0.562182431154116,0.596722608502493,0.543158486298246,0.463559110306652,0.515742649446976,0.630500144961575,0.572936883521466,0.478185990944657,0.527569191447333,0.461954976833107,0.633828022793733,0.554846700777721,0.562926679344478,0.54847293405234,0.516484861924728,0.597603892756465
670,cane,12m,PC,0.522341892037272,0.638033061023845,0.558937430499946,0.562043465418072,0.593811416111137,0.545868460355777,0.470594355486731,0.5130050184782,0.640862147576744,0.572246365633185,0.472767799348445,0.529477071441416,0.459012356028202,0.638155985006303,0.557213800029759,0.559094113069739,0.542735606882888,0.515610019339697,0.599614717869803
680,cane,12m,PC,0.520682317394798,0.638740019654013,0.551212792003931,0.56078193069417,0.592081696611809,0.547744533156333,0.481308964858081,0.510286955434778,0.651439182388336,0.570009235707619,0.469545981588772,0.531792181499641,0.456613112005424,0.642103006023944,0.560386117729073,0.554811182006417,0.537197796528528,0.515663505604131,0.601492745706766
690,cane,12m,PC,0.518764254385795,0.637547523811019,0.54228067340035,0.558273593264804,0.591309921337344,0.549162211092392,0.493094576653447,0.507885491169714,0.661835884299309,0.566628323638438,0.469262333020132,0.534870282503317,0.454437518441119,0.645893853851227,0.56370054113165,0.549554057332065,0.531511959486496,0.516997036157107,0.60387540220594
700,cane,12m,PC,0.516291915476619,0.634914498836563,0.532682200807114,0.555394127828711,0.591370002359825,0.550272600702792,0.504163193853609,0.505807290950675,0.671941836154073,0.562671566169976,0.472268118354647,0.538850528748552,0.452822102444434,0.649758936365289,0.56745111609802,0.543268961189105,0.525258884546406,0.520059594154136,0.606438410219014
710,cane,12m,PC,0.513673018307115,0.631392760310734,0.523754410070543,0.552412626203757,0.592325493009747,0.551906294683018,0.513011377183963,0.504166835940158,0.680959598666882,0.55862627192237,0.479362400654576,0.543513360721938,0.451396564926597,0.653624109053347,0.571369850422539,0.536898270505055,0.518253542088105,0.524450263279606,0.608497134250442
720,cane,12m,PC,0.511761657022746,0.62702964911887,0.516097541683368,0.548449882752274,0.593790450699146,0.554610605208917,0.519091186452449,0.502693008019798,0.689148474234413,0.55479832901484,0.489192158098565,0.548466752942727,0.450204838216052,0.657291194723854,0.574938121803073,0.530124029532999,0.510831110249526,0.529813791910258,0.609734012155648
730,cane,12m,PC,0.51074678406479,0.62188861200723,0.510163085424988,0.543290875257991,0.595331451047398,0.558433549165339,0.522436589993413,0.50140468550836,0.696415814983865,0.551390707144858,0.50098434534813,0.553205331470966,0.448785961249526,0.6608877155216,0.578653123895374,0.522928027024293,0.503721650912998,0.535708445241302,0.610313827848673
740,cane,12m,PC,0.510960300958946,0.616149991875911,0.505712906752509,0.536834773047144,0.597004373415779,0.563438035760381,0.522502672368459,0.501104400703626,0.701664568497803,0.549270582796327,0.513813735802375,0.557163927539727,0.44718265442665,0.66447155721917,0.582152417785645,0.514720172290392,0.49701749183448,0.542128023050669,0.610308035989483
750,cane,12m,PC,0.512272643411336,0.610149751891507,0.502648738147031,0.530624479484485,0.598988880118627,0.569527529180957,0.518610039610388,0.501620152065681,0.704689676240284,0.548713367042481,0.526743603264532,0.560375005796884,0.445483867888674,0.668099717123168,0.585089842942331,0.506059769199432,0.490366272183915,0.54871825915855,0.610415664029618
760,cane,12m,PC,0.514200496944893,0.604133642833589,0.499879358502935,0.525012786598806,0.600851288336374,0.576775229617264,0.511323505843354,0.502465653432172,0.705695109719573,0.549990802199251,0.538843470890054,0.563226406575846,0.44473091235175,0.671266509757068,0.587602408063827,0.49878182519836,0.483806258938134,0.555792756182095,0.610740215971543
770,cane,12m,PC,0.516141134737302,0.598004521540982,0.497553421624327,0.520127660060802,0.602507090079078,0.585206684210776,0.501536849542558,0.503420252540878,0.705249376773433,0.553655234659597,0.550129732774765,0.565548226341573,0.445216861856417,0.673858542697646,0.5900295733296,0.493565403338175,0.477325306196121,0.563319646104406,0.611197043678633
780,cane,12m,PC,0.518043230809219,0.591544548941243,0.496257554382224,0.515691725151099,0.604397066038062,0.593928375171971,0.491415793875458,0.504844900059853,0.703881405791094,0.558813592273985,0.560855570170094,0.566792123730718,0.447008837085001,0.67595516708167,0.592530499779402,0.490065364635374,0.471121825229043,0.570337888598609,0.611645963941766
790,cane,12m,PC,0.519770022703401,0.585136580569299,0.495638502575088,0.511183220497372,0.606730087084914,0.60297869998406,0.481933335187547,0.506398982744573,0.701871415630826,0.564723495028785,0.570928469986595,0.566790118416248,0.45006022459302,0.677407278099583,0.595131094671211,0.488362676279611,0.465399536520944,0.576775369213547,0.61169489229692
800,cane,12m,PC,0.521626289584404,0.579179104967902,0.494849650759836,0.506903636417671,0.609468587519326,0.611896750669314,0.473373191702511,0.508479658606704,0.699134389075908,0.570964550290344,0.580556936476709,0.565624523208782,0.454521946513951,0.678211488222214,0.59833766342067,0.488200146275306,0.460072620304475,0.582754472513385,0.611165080591848
810,cane,12m,PC,0.52401475527035,0.573540942561299,0.493018208224935,0.503296273629072,0.612778313320905,0.619998624366946,0.465949154381271,0.511674381454327,0.696615134821574,0.578125681472165,0.589796883073754,0.563686143870794,0.460558176638153,0.678743228188082,0.602069674233667,0.489495729724361,0.454797394746781,0.588089337343918,0.610395946104295
820,cane,12m,PC,0.527135537816516,0.567986040011111,0.48986499369232,0.500570653316767,0.616506810316937,0.626927139555123,0.460067241266951,0.515493883329492,0.69465414443339,0.58637670345117,0.598367837578613,0.561063406220738,0.468366095596629,0.678978185056548,0.607001210299233,0.492811817114456,0.449710848122348,0.593049115888492,0.609635761671044
830,cane,12m,PC,0.53106624039435,0.562861605991593,0.484771374030941,0.498875376913286,0.620689976723678,0.63213138982179,0.456601881097208,0.519547994411378,0.693782038676745,0.595848758626502,0.606199675766702,0.558253805214807,0.476897017066314,0.679185601164209,0.613401623895129,0.497744796052468,0.445366590335997,0.597285966812403,0.608729684830444
840,cane,12m,PC,0.535248993361073,0.558443538039655,0.476888209611633,0.498570247118217,0.625240925144279,0.6353810238664,0.454274437462651,0.524260889039586,0.693291597852371,0.605989459416317,0.614834133395054,0.555651837732365,0.484846140838118,0.67902085447224,0.620877857670826,0.503723662044234,0.442032145691091,0.600453217338044,0.607922480820054
850,cane,12m,PC,0.539639780698512,0.554820252886929,0.467105572971868,0.499773267402537,0.629721446725301,0.638291255448819,0.452897687178464,0.529270187015397,0.693655339477489,0.616093909753913,0.623068238797695,0.553324262144643,0.491360559674699,0.67858075508995,0.629325619916063,0.5108317300998,0.439468663918549,0.602267453595584,0.607155921399147
860,cane,12m,PC,0.543870293078165,0.552223821760694,0.456636406604701,0.502861216733716,0.633806147743201,0.640877444541425,0.452489386585488,0.534044487114928,0.694998139683055,0.626383028824396,0.628990022612351,0.550611985734352,0.496565377431397,0.677887555573392,0.63832976075204,0.519416671781006,0.438506513936199,0.602178487853677,0.606269380166074
870,cane,12m,PC,0.548183455707261,0.550342129437902,0.445674726768609,0.50845922847746,0.637510619858831,0.643004961374519,0.452991351826504,0.538141004810101,0.697745394087449,0.636158479217406,0.632440078165914,0.547832327496384,0.500321463322109,0.676863740227859,0.647158211047263,0.529863232684779,0.438954814119826,0.601138204544183,0.604945563334664
880,cane,12m,PC,0.552603870020853,0.548510397829853,0.434678709129108,0.516610264169059,0.640732841474366,0.644440564112483,0.455544783159919,0.541211803457804,0.702005155747016,0.645328251062301,0.634357638070006,0.545360356873437,0.503075407360353,0.675915554562729,0.654963025764192,0.540531527088927,0.440788949277877,0.599904466986257,0.603532249001056
890,cane,12m,PC,0.557072578257091,0.546559173684401,0.424693946505178,0.526330339815837,0.643628997213121,0.645052069831015,0.459404346272581,0.543569899514495,0.707581018205334,0.653588962053178,0.634650025768193,0.543187874457159,0.505065211583848,0.674918428305521,0.661913275027522,0.54982125322065,0.444035866453804,0.598079889133921,0.600996333525962
900,cane,12m,PC,0.561126377738024,0.544792724406928,0.41812678770805,0.53699004292829,0.646459378034395,0.644829625776401,0.463463395465326,0.545815501674365,0.713886307790501,0.660598543243527,0.63322965493628,0.541343049668669,0.507155149442962,0.673853101697912,0.668225393939465,0.557150766114196,0.449274431314362,0.596331053263361,0.596463074749317
910,cane,12m,PC,0.565402528187131,0.543112869133405,0.414778584729448,0.548439567398669,0.649487271407,0.64421310391721,0.467076089885514,0.547976767972387,0.721465604747123,0.666072677128185,0.631035696206864,0.539846366590243,0.509759312919346,0.672625181336457,0.673767717871779,0.562517931502249,0.455852504559233,0.594636119746355,0.590163321454395
920,cane,12m,PC,0.570373765644938,0.541487782169595,0.414545057330675,0.559964386795803,0.653316916575886,0.643956055046616,0.46929174939007,0.550333962543955,0.730385199329167,0.669731301236942,0.628151183739499,0.538699136178102,0.513149860433212,0.671173913065735,0.678897683182574,0.565910850400367,0.463675959821393,0.592771397224756,0.582262209437084
930,cane,12m,PC,0.575534196564423,0.540124469563467,0.416739279482968,0.57079622711529,0.657691360503658,0.644479137450906,0.469205294074076,0.552958676224066,0.740392546529976,0.671354792577465,0.625260223944788,0.537492755101179,0.517278680192665,0.669474171310076,0.683495001153918,0.568496196405055,0.472487646220296,0.591266821382815,0.573103153129564
940,cane,12m,PC,0.580610876875445,0.539232847938511,0.421189864205009,0.580893645319535,0.66242475464797,0.646322371796507,0.468309955087429,0.555978240232961,0.750774472950472,0.671638679366819,0.62160150065068,0.536079159139538,0.521996739130469,0.667639679245407,0.68685906193281,0.569021090479259,0.481931613190068,0.589545180131382,0.563510295281933
950,cane,12m,PC,0.585670771322749,0.539445005962007,0.427370903838524,0.590049619932435,0.666766941555728,0.648826627077583,0.467780598711423,0.559518896206887,0.760075311984882,0.671400039684032,0.616806618036234,0.535273621960479,0.527515401143904,0.665957973960329,0.688929349780827,0.569118949336102,0.491644021554692,0.587423134798627,0.554339879423059
960,cane,12m,PC,0.590430983389951,0.540892297209181,0.434338096320756,0.597135881729955,0.670783183791366,0.651208671080211,0.468449761412656,0.563577208620636,0.768271786037866,0.670880321497581,0.611916680283467,0.535423918373152,0.533693822693906,0.664269508581635,0.690029482654054,0.56888523987118,0.500857960209134,0.585304149964447,0.545010654030863
970,cane,12m,PC,0.595197044953871,0.543362280911419,0.442274182397354,0.60256399566177,0.674569468525754,0.652922494212846,0.470276967157982,0.567927700901795,0.775180464027019,0.669607197610478,0.607882031450881,0.535682709477099,0.540012105049678,0.662674788717058,0.690617882746529,0.567942725837712,0.509263784973023,0.58282349852991,0.535317994700495
980,cane,12m,PC,0.599624219835371,0.54664344355354,0.450349129465325,0.606543755840965,0.677815463319624,0.653942986285186,0.473098972563614,0.572635066283754,0.780652252287837,0.667902418150343,0.605392750214843,0.535221660230719,0.546012477201287,0.661103118193117,0.690484628286059,0.566427387813113,0.516785518731323,0.579626353384041,0.525075632647694
990,cane,12m,PC,0.603329932499303,0.550551519489167,0.458023032714421,0.609266355985698,0.680893337132817,0.65353737747244,0.476560578325574,0.576984106130494,0.784852967836794,0.665303030661723,0.605090123857549,0.534033108921208,0.552099065654485,0.659320391907588,0.688935105912626,0.564314860723598,0.523496308003654,0.575890454124502,0.514906218936801
-1000,grasp,12m,PC,0.511882139347255,0.504314702678035,0.455704126812279,0.444454267772419,0.61963645385381,0.576219991938665,0.469775849314807,0.611529369923597,0.603131194175896,0.530210260432813,0.577457798162433,0.531661855578856,0.495856017726522,0.620031955383031,0.527138511348875,0.535826237815177,0.545115119902229,0.586320492508174,0.607228862015536
-990,grasp,12m,PC,0.514833613453092,0.502528655679464,0.457148282204198,0.44403703007227,0.619945352569538,0.577959250971772,0.466090362346488,0.614089608817561,0.603053009095606,0.531393933830169,0.574717283993048,0.524404009174935,0.493119770157474,0.620352380472175,0.521584454706416,0.531340813355428,0.537316836822227,0.584475873747639,0.602535853728703
-980,grasp,12m,PC,0.517079334182149,0.500703263502992,0.459470945692875,0.44491137940963,0.620042526499103,0.580078642924168,0.462548926388701,0.615950176499261,0.602076164203067,0.532472250539654,0.572740375235459,0.517085971833748,0.48962803948454,0.620669880419469,0.515944682275671,0.5278199378986,0.530301581988448,0.583173644284175,0.597151772698051
-970,grasp,12m,PC,0.518504781275026,0.498545431744298,0.462985579586461,0.446673108616806,0.619562681532661,0.582669331731202,0.459687951062082,0.617194137534381,0.599787952068197,0.533124867265875,0.572022355477452,0.510222254578067,0.486136151273098,0.621260317730293,0.510186724918716,0.524855758345507,0.523470707868249,0.582497120752715,0.591639339175075
-960,grasp,12m,PC,0.519680049585637,0.495806656548265,0.466902778594802,0.448716871190166,0.618000129282005,0.585343950684044,0.456939685319462,0.61757301043625,0.595640722395954,0.532763028372571,0.571300505638055,0.503637423437083,0.482540094044977,0.621790180663975,0.50487145634192,0.522792908079189,0.517510698062713,0.58237990460493,0.586759643490253
-950,grasp,12m,PC,0.52117879298367,0.492188730423967,0.47050322579425,0.450325499934921,0.615664368933794,0.587108137294279,0.454597554658926,0.617188739779523,0.589821520007484,0.531993644527348,0.570385180691187,0.497373947128022,0.479096162399496,0.622347261947005,0.500240916320373,0.521928884930705,0.512252863530077,0.58282243238438,0.582356960420404
-940,grasp,12m,PC,0.523062014568014,0.487621286413586,0.471953442202354,0.451995194956127,0.612960616415503,0.587666579818072,0.452011378147506,0.615960362302765,0.582178727518661,0.530723120879155,0.569379943901981,0.491781086725917,0.476868474020437,0.623268453748162,0.495717872882518,0.521160725397794,0.50786491718031,0.583935519102192,0.578252467705627
-930,grasp,12m,PC,0.524774653549344,0.482259342639696,0.471677344472997,0.454216176128498,0.610435176159247,0.5869591847493,0.449237086591613,0.614501108279332,0.573256225959047,0.529120562147627,0.568087150964671,0.48713385681571,0.475719818127888,0.624187303400495,0.491682425977082,0.520690668273102,0.504028289131642,0.585432255652086,0.574531791568065
-920,grasp,12m,PC,0.52663266032203,0.476134720045707,0.470502412017551,0.456740551116901,0.608545579264429,0.58552659547669,0.446429573529595,0.613072365135684,0.563223700593478,0.527475058010647,0.567408140738589,0.483807036768236,0.476480373146306,0.625242327636003,0.488161789064611,0.521546202140467,0.501192254817564,0.587032812856732,0.571066067925898
-910,grasp,12m,PC,0.52847355544277,0.469506172345618,0.46886336058538,0.458720160703898,0.608187937127249,0.583476786872996,0.443773872132973,0.611581436261164,0.55308482302348,0.526668347501219,0.566677989961656,0.481482702919251,0.479850077427334,0.62624394533047,0.485375916724033,0.5231274739931,0.499613966227858,0.588472796288726,0.567916726130466
-900,grasp,12m,PC,0.530647122777681,0.462988524024239,0.465971121467881,0.460614896299607,0.609137353038086,0.580536522515288,0.441654889464452,0.610306077430926,0.543386700772262,0.52727311246664,0.566024119289691,0.48000326045661,0.48552110983591,0.627031646787043,0.483177184639669,0.525661375531016,0.499321699344467,0.589400386886385,0.564981865866528
-890,grasp,12m,PC,0.533325960733832,0.456867569534655,0.461815266383464,0.463212646311117,0.611051543139709,0.577095856979477,0.44075057839712,0.609248450824234,0.533823183283457,0.528127873888438,0.565183288922186,0.479070512308428,0.492389253982735,0.627590985273687,0.481003987189736,0.529358566611565,0.50061578636474,0.589881165943566,0.562228584302087
-880,grasp,12m,PC,0.536428253096831,0.451075343411389,0.45643225797395,0.466367467199965,0.613574236860708,0.573845781672743,0.440987857487496,0.608208264643954,0.524275435853373,0.529409171964802,0.56369491252094,0.478254038778075,0.499717075985719,0.627817297163896,0.479241134221712,0.533930367230901,0.502849389469077,0.589861013820842,0.559165928597684
-870,grasp,12m,PC,0.539781428935064,0.445887421509676,0.451174825817912,0.470987310030492,0.616413099642517,0.570851301103419,0.441724665216173,0.607245955199518,0.514720247381586,0.530795856214037,0.560660696890785,0.477805046708729,0.507318844790165,0.62771955816634,0.47845973658115,0.539392475018567,0.506074795074938,0.589211670773021,0.555802971871399
-860,grasp,12m,PC,0.543430576865239,0.441314154519567,0.446393692488839,0.476535570789719,0.619414022473723,0.568544307976359,0.442897089255061,0.605704406766346,0.504945806695699,0.532316175951539,0.555695640097609,0.477856060815577,0.515325932544031,0.627242741194533,0.478627871118189,0.545372814656826,0.509931643788325,0.587716372297728,0.551902713367749
-850,grasp,12m,PC,0.547242852430752,0.438186324320963,0.442306845894931,0.48319787782302,0.622490173583054,0.567156431832855,0.444285954434966,0.602594162603785,0.495248027825135,0.533301309049413,0.549799350449997,0.478142827915179,0.523989640895786,0.626209211780672,0.480189345391863,0.549516918384526,0.513986917677972,0.584967536948223,0.547551404070412
-840,grasp,12m,PC,0.551309270029393,0.437444982283787,0.439662869430868,0.491305535918299,0.625615256858752,0.566567291861213,0.445824617882263,0.597510288550573,0.486609281172315,0.5340231152667,0.543551998806523,0.479027119822774,0.53340727107831,0.62487971587768,0.482790934811692,0.550625746551853,0.518728929358523,0.581159940387437,0.543438826944302
-830,grasp,12m,PC,0.555711968612297,0.438720264469389,0.437584030137234,0.500120610021813,0.628617919129675,0.566504830126397,0.44756945334791,0.591299974405355,0.479057433047556,0.535161558621437,0.537473992051592,0.480365099370667,0.542520760920781,0.623418089741525,0.48606694393309,0.549966676956045,0.523922215808423,0.576480588198398,0.539263621065884
-820,grasp,12m,PC,0.558999092765099,0.441149673398819,0.436484896117419,0.509005248948381,0.631457149169348,0.567075850885579,0.449631933576473,0.584908029717096,0.472955869633976,0.537140575099751,0.531640407816399,0.482415985192694,0.550629946508025,0.621810362463266,0.489289227059303,0.54781700236257,0.529514854916519,0.571113087673632,0.535128482974253
-810,grasp,12m,PC,0.560972645924402,0.443787779321674,0.43680533190306,0.517507398863788,0.634123531427732,0.56834176997165,0.452215368029197,0.578434344159732,0.468335384157028,0.539811636254765,0.526639070079178,0.48485935622243,0.557480981672932,0.620428913550097,0.492243740124432,0.545151635559966,0.536638281668973,0.565264006858841,0.530897614366831
-800,grasp,12m,PC,0.561447756135949,0.446287748015519,0.437985333818339,0.52590073453574,0.636394585620359,0.569072487325574,0.455269981357748,0.572391597599885,0.465289019913272,0.542649062114053,0.522900857875146,0.487296397723547,0.563609486824516,0.619216882196719,0.4939514359971,0.542719227481905,0.545242756632803,0.559627666229171,0.52638279262375
-790,grasp,12m,PC,0.560566801817371,0.448872399179436,0.439497055242293,0.534160433863662,0.638945083357529,0.569478526962318,0.458227097265595,0.567881598090649,0.463586606782541,0.545417657573282,0.520752549577835,0.489570977562589,0.569071701051436,0.618237412621088,0.494312114930785,0.541634451661997,0.554960534079103,0.554617151008423,0.521567487920939
-780,grasp,12m,PC,0.558767510482983,0.451764230223241,0.440785111559794,0.542017792522364,0.64215158046183,0.568661288988892,0.461292262006469,0.565103870554481,0.463546198101407,0.547730970219379,0.51938581223128,0.491500629476107,0.57389881021139,0.617033283542412,0.493314484711888,0.542858893098008,0.565875462486681,0.550587537364218,0.51643982914229
-770,grasp,12m,PC,0.556213747459986,0.455553563239174,0.440691080598322,0.548982504623261,0.645714605644642,0.567432274495388,0.465064408425779,0.56370092729005,0.464348558611004,0.550358357030671,0.519359345958883,0.492844652285712,0.578137369972008,0.615484353820058,0.491765334191063,0.54491324169029,0.577145158898849,0.546789650860723,0.511562401828285
-760,grasp,12m,PC,0.553573444666029,0.459140999482243,0.439889670617615,0.554156235143458,0.649770554815073,0.566160593931626,0.469650024363425,0.56291864802621,0.46704391373167,0.553362724421241,0.523259715128711,0.493736762688902,0.581599795969291,0.613720315826953,0.490790527502044,0.546964260728227,0.587665828959884,0.54277832932549,0.506797111725767
-750,grasp,12m,PC,0.551311343744892,0.462231322368514,0.439230509660662,0.556548656810855,0.654134749085002,0.565530497763342,0.475651015245186,0.562256486212709,0.471218358547529,0.557020751155829,0.528895417252888,0.494398465504767,0.583975700209344,0.611658311588876,0.490700310029687,0.548483447854396,0.596895363988036,0.538453007321747,0.501380065645834
-740,grasp,12m,PC,0.549840322909478,0.465214300082652,0.439445878507037,0.557074363763892,0.658682177309177,0.565751424037898,0.482126980622012,0.560982403222187,0.476561461656098,0.560254125884659,0.536054364193723,0.495009705773997,0.586307577250748,0.609418251700052,0.491365498083993,0.548582935365989,0.6043302762964,0.534103321548406,0.495141704830726
-730,grasp,12m,PC,0.54936696187673,0.468069558515124,0.440021661996421,0.556833609094866,0.663040205331553,0.56696571223482,0.488672327590018,0.559305591683035,0.482220629480806,0.563025183631314,0.543963777669626,0.495651976790674,0.588715614755809,0.607282387860078,0.4931577801976,0.547687149276826,0.609977634461191,0.530223773943882,0.488628419725586
-720,grasp,12m,PC,0.549720846125604,0.470501182272849,0.440430598262688,0.555762529926884,0.66719139057037,0.569236390326123,0.494943519882986,0.557331050160969,0.487807417398665,0.56538758548875,0.552150021877141,0.496731581253898,0.591112963669564,0.605522878710249,0.495676490297704,0.546110515155825,0.614679179212716,0.526913746543828,0.482806870775316
-710,grasp,12m,PC,0.550151378794127,0.472162813777202,0.44087866138875,0.553889833562942,0.671256584008131,0.572065319861683,0.501247215228005,0.555562634250932,0.493050727152714,0.567022978262984,0.559833177557144,0.498798618225693,0.593021333916323,0.604228453200005,0.499051647308848,0.543458087223045,0.618601343148554,0.524216047914718,0.478157218195022
-700,grasp,12m,PC,0.550405483782914,0.473385812332753,0.441623341495482,0.552041464220231,0.675052042599841,0.575280738341318,0.507199008104031,0.55466158789589,0.498527315937022,0.567957285583381,0.566602782358885,0.501609052347727,0.594578548703851,0.603357963647874,0.504043317960873,0.539660364036402,0.621770580404666,0.52192784670398,0.474045264454468
-690,grasp,12m,PC,0.550773744807056,0.474517752685253,0.442024276157059,0.550254217298251,0.678614720312026,0.579328932278452,0.512897835132626,0.554800705541956,0.504699938023055,0.568595350302108,0.572459217122714,0.505183280219904,0.595955852880922,0.603353233878972,0.509874259196178,0.535285759173861,0.624367615365172,0.520290547635598,0.470958641953569
-680,grasp,12m,PC,0.551206854895575,0.475456849104585,0.4411992858606,0.548759384611981,0.682068817185376,0.584525206697429,0.51780971435575,0.555768566151624,0.511336960354427,0.569159382369652,0.577421339081161,0.510027881171947,0.597164781525986,0.603943272890749,0.516323622557526,0.531907658290343,0.626845399793653,0.519318484737211,0.469473330482974
-670,grasp,12m,PC,0.551455658224841,0.476145063990178,0.439440975066055,0.547705228256875,0.685399867180515,0.589811174488673,0.521804165455917,0.556897026887602,0.518210740033109,0.568983376472262,0.581388006467433,0.515815386757494,0.598194430994452,0.604685849866617,0.523251955195185,0.530398087462949,0.629687039252728,0.518295090239442,0.469584513580253
-660,grasp,12m,PC,0.551472648091949,0.476981526671484,0.437823883035636,0.546846966261583,0.68854373873545,0.595088221910667,0.525180966894901,0.558247391152834,0.524522220229472,0.568062693141775,0.584280235167399,0.522293251251333,0.598531654429323,0.605047186123464,0.530654343237842,0.530011715682612,0.632932014220231,0.516928883023523,0.471157582535545
-650,grasp,12m,PC,0.551082267338961,0.478639429835265,0.437198823929415,0.54578276948538,0.691338219162269,0.600352384563067,0.527924454778559,0.559078747236122,0.529895138757875,0.566307624381737,0.586426234578727,0.529146615234971,0.597909039730531,0.605054649706223,0.538166320432945,0.530298788804162,0.636204482817908,0.515498955934861,0.474234268883858
-640,grasp,12m,PC,0.550852341908295,0.48108256152451,0.43702728278107,0.544231899389732,0.693559345757835,0.605156215288366,0.530653922037214,0.559117740468537,0.534067978084862,0.563296200490837,0.58795937252572,0.536176529648403,0.595647492091082,0.604407413762757,0.545266002416803,0.530163180786416,0.638969350360627,0.513895782650566,0.478017610177128
-630,grasp,12m,PC,0.551232305918914,0.48345643261954,0.438178943985039,0.543479620362968,0.695370272930451,0.609398991790406,0.534094614443766,0.558123532999124,0.53740711679342,0.559361851569893,0.588470388197579,0.543236928007108,0.591129286103965,0.603608437336554,0.551473295890521,0.529014211786486,0.640918649754736,0.512484613233164,0.481571615956822
-620,grasp,12m,PC,0.552260571660264,0.485558422079274,0.441567147050609,0.543476346658254,0.696963794304294,0.612347996586243,0.538371405228188,0.555793239281754,0.540431999579382,0.554821077806512,0.587169734661794,0.55038335429369,0.584468500841655,0.602701353769063,0.556923163657128,0.525711590738084,0.642544222963166,0.51153158395376,0.485702819929863
-610,grasp,12m,PC,0.554130361385083,0.487331707317813,0.447261446148705,0.543102513092804,0.698389180596579,0.614036763498447,0.542720401917272,0.552695705952691,0.543207947001784,0.550764443001846,0.58347434095304,0.557047159762667,0.57740253714946,0.60198477418455,0.56224487875399,0.520385450242448,0.64366528210189,0.511116631184864,0.490509382850931
-600,grasp,12m,PC,0.556616651446444,0.487911948803625,0.45442973456499,0.541713117669475,0.699279915205415,0.613703979478703,0.547828286261162,0.548936062532206,0.546307309264099,0.547391952061748,0.578355193778737,0.563133841197393,0.570392399155641,0.601526787799319,0.56734610304624,0.512932566404488,0.644157934123352,0.511535853387451,0.495317526446821
-590,grasp,12m,PC,0.558882978121377,0.487844135369668,0.461914416165308,0.539899166363749,0.699442490090865,0.611733258481152,0.553934494873121,0.544387287552551,0.550537535243476,0.544245466378217,0.572857874226763,0.568709215099367,0.56323969709032,0.601166534393772,0.572127259819035,0.504442794242426,0.644053667201216,0.512948889590037,0.500763422088441
-580,grasp,12m,PC,0.561137705483546,0.487313340865608,0.468916960696342,0.537440796539781,0.698870153369836,0.608299703557782,0.560463683563503,0.538636409584381,0.555140068552526,0.541782975108036,0.566735301986268,0.574217029376066,0.556279478099327,0.600828880534854,0.576828172268241,0.494883471658286,0.64291197506727,0.515512481100221,0.507347231004404
-570,grasp,12m,PC,0.562980820834978,0.485953215406055,0.47534849103344,0.534401281056684,0.697257546862851,0.60329212308421,0.56751605226214,0.532125089284667,0.559411867505063,0.53986068749285,0.560151333027306,0.579643314621702,0.54967467935408,0.600572949974168,0.581042466373361,0.48536367106498,0.640449407504422,0.519127855435245,0.514971425372601
-560,grasp,12m,PC,0.564727102648853,0.483741867493595,0.480990106192011,0.530379671861484,0.694740274228939,0.597173512964899,0.573939602361988,0.525333563281615,0.563503110498858,0.538418705007002,0.553084570043811,0.584714216549485,0.543869575504734,0.600649283087686,0.584830125600511,0.477113580654647,0.636761686971836,0.524307518195939,0.523413764540203
-550,grasp,12m,PC,0.566545566392506,0.481067182536219,0.485632008949633,0.524895876370398,0.691480340808148,0.590741165135919,0.579093322203961,0.518143102884082,0.567404873399402,0.537372358107986,0.544959425036578,0.58938117936771,0.538837852531707,0.601103984360652,0.587600297109326,0.469334046617501,0.63200731374481,0.529795204883524,0.532338507802515
-540,grasp,12m,PC,0.568141589989004,0.477224593838156,0.489381684407102,0.51818122806578,0.687986716734256,0.584515806567638,0.583454247914353,0.511075908332696,0.571349561495858,0.536540262099893,0.536313142227704,0.593452609674663,0.53479200317965,0.601927095550373,0.589371485849578,0.46262014706755,0.626410012166476,0.534840532965724,0.541638642425337
-530,grasp,12m,PC,0.569486498122736,0.472399953949381,0.492424990924353,0.510511310683448,0.684335594557087,0.578808491471638,0.587202723295861,0.504939680346854,0.57557293133874,0.535147650602916,0.528778851309116,0.596847307222674,0.531777009015113,0.602660674575699,0.589915589309561,0.457330686666973,0.620187793483645,0.539488000233767,0.550909373863869
-520,grasp,12m,PC,0.570444217207409,0.467239807394334,0.496541522608784,0.503626591012161,0.680249551410222,0.573693302520031,0.590250015964017,0.500204988573947,0.579641038641036,0.533505371872757,0.523451327589587,0.599704955067617,0.530163249300162,0.603207160203448,0.589156579666895,0.454036774128539,0.613534730097908,0.543257431263938,0.559636762915627
-510,grasp,12m,PC,0.570940281955788,0.462542256162767,0.501396562506558,0.497850743835702,0.675634513481952,0.569609091741473,0.593082500973688,0.496910956380317,0.58338589917299,0.531805491018851,0.520166971305174,0.60203605875699,0.530100983811261,0.603559389165243,0.587149233811387,0.453560897523365,0.607433015381815,0.545522121666607,0.56706458202705
-500,grasp,12m,PC,0.571082252948257,0.458904747778314,0.506461598033247,0.493645940006333,0.670668869929426,0.567519342676187,0.595963650194609,0.494709076825932,0.586444099806542,0.529788200127574,0.518309354815175,0.603305767789462,0.531289747738362,0.603624201546665,0.58456452035445,0.455846824041518,0.602430972714294,0.546169743695362,0.573103819872336
-490,grasp,12m,PC,0.570527156040252,0.456741132067912,0.510981527029113,0.490631860529861,0.665450851897567,0.567480965246211,0.598511742849658,0.49393959118322,0.589489981923326,0.52754865524497,0.517876924372602,0.603721328387732,0.533100411799741,0.60318264356801,0.582244512596563,0.460852189534827,0.598801221602733,0.545897928699057,0.577842601106891
-480,grasp,12m,PC,0.569252912919766,0.455776689618451,0.514958675631116,0.488364031970315,0.660294758090363,0.568691280483366,0.59957994256425,0.494612027982783,0.591951498768275,0.525311104612656,0.518447843344782,0.60364675634125,0.535271431503454,0.602095553992478,0.58089236966615,0.468229499451471,0.596488958474814,0.544418250047217,0.582073414822654
-470,grasp,12m,PC,0.567580763104988,0.456132957732385,0.518758987748749,0.486531579613656,0.655212656090802,0.5706517247152,0.599279457001251,0.496294852551367,0.594169227149997,0.523398596094488,0.519449846595862,0.603344235345151,0.537465460092254,0.600303915892696,0.580804660012286,0.475422740168577,0.595902099894976,0.542102762824525,0.585880207237441
-460,grasp,12m,PC,0.566127673833682,0.458097491277527,0.522228956911725,0.485063321194499,0.650188866173024,0.573015303177427,0.597458771504899,0.498076053826775,0.596791766418174,0.521614157213568,0.520653602082528,0.602860927888613,0.539637377101441,0.598219083181124,0.582202230993086,0.481666656020841,0.597504070680348,0.539191544302464,0.589819998700633
-450,grasp,12m,PC,0.564664548875309,0.461864780715176,0.524391036773503,0.484482678086647,0.645612288503315,0.575391476679926,0.594600501210783,0.499093145090388,0.60045293744829,0.51977068108255,0.522716408794654,0.602450886349546,0.541609308667577,0.59604082235486,0.584623961434194,0.487777231777467,0.599990339160469,0.536309034804857,0.592917470039099
-440,grasp,12m,PC,0.56327145825885,0.466953176184886,0.525066354655104,0.485472260136527,0.642303783348555,0.577183857558024,0.591466681135347,0.499641451523858,0.604895661766751,0.518054357674139,0.524441816763974,0.602477861960784,0.54310780282985,0.593873209871874,0.587476624565628,0.494465486449549,0.602891923075721,0.533901068937536,0.594789782885898
-430,grasp,12m,PC,0.561945816828928,0.472883696146893,0.524311733993901,0.488530705778734,0.639746893946934,0.578504930436873,0.588110257717366,0.500430543933494,0.609289693464372,0.516895257213756,0.526501034436591,0.602983144739059,0.544059079094853,0.591453449822097,0.590632936588734,0.500928761310542,0.605250513086615,0.531445687331454,0.595196029619597
-420,grasp,12m,PC,0.560485134530384,0.479604993047406,0.522366610762619,0.492436555814026,0.637793199054761,0.581049390549845,0.584710332765991,0.501736754277831,0.612876976137297,0.51604014863577,0.528708521001432,0.603385744437955,0.544950942057698,0.588778413969922,0.593591561180988,0.506541606343485,0.607139485060198,0.529065440053104,0.594913374824887
-410,grasp,12m,PC,0.558100226736569,0.486105599571153,0.519089649025887,0.496437718248221,0.636179416337013,0.585434715511301,0.581604984101632,0.503379583229807,0.616025341023924,0.515477654365979,0.530819059720839,0.603209947902639,0.546158725116454,0.58528848433181,0.595950438061986,0.51190765269349,0.608620728940001,0.526690803657302,0.594089813478069
-400,grasp,12m,PC,0.554708456924114,0.492387489035136,0.514873657190731,0.499991983837355,0.635032468471153,0.591157405459228,0.578816426964724,0.505535019826274,0.618339212482284,0.514948415582167,0.532757014721767,0.602351647433293,0.548173972050472,0.581122526837371,0.597884370481477,0.517005440249158,0.609518701412941,0.52438128572192,0.59264453188468
-390,grasp,12m,PC,0.550713776432331,0.49876779222444,0.5091788672931,0.50444238188699,0.633869875793434,0.597321165287912,0.576750576867657,0.508217887147368,0.619019628583173,0.514772955096305,0.534176187959357,0.600842348351138,0.550901543681586,0.576971310807581,0.599076093177161,0.522071015388069,0.609848236484241,0.522396246067855,0.59074638476589
-380,grasp,12m,PC,0.545978226993674,0.505518513044132,0.502107169404191,0.509175752827464,0.632516234598224,0.602238920276895,0.574949019464836,0.511434778943914,0.619312198595991,0.515436094970417,0.536049028383628,0.598811547727545,0.55378909920263,0.573475716195903,0.599831513825811,0.527167163090179,0.609909096630209,0.520687705959734,0.588574826390077
-370,grasp,12m,PC,0.54108542485406,0.512520022138349,0.494065569450701,0.514493720586118,0.63094305286951,0.605779348172219,0.57335755472903,0.515001875186721,0.619356843620606,0.517139426040254,0.539013206178469,0.596600399403275,0.556312997017624,0.570582855537502,0.600540193171858,0.532233910250059,0.609819402639553,0.519180478866161,0.585900483004238
-360,grasp,12m,PC,0.536599647956199,0.51928252699043,0.485085784171476,0.519729596420142,0.629037383058377,0.608364104165928,0.571841537060782,0.518856084159609,0.619110136961054,0.519756088992378,0.542929342929962,0.593967011772134,0.558623442544336,0.568142398750883,0.601631209995723,0.537114139965225,0.609937744958319,0.517338615539787,0.582212308308139
-350,grasp,12m,PC,0.532901652475113,0.525722629716091,0.475921733723913,0.52481090261723,0.626766234018564,0.610410191778316,0.570616422448421,0.523231385060224,0.618974885575175,0.522569538478977,0.547472230532475,0.591142496095665,0.560724272147169,0.566152961605822,0.603022854100392,0.541709478871563,0.610641981658959,0.515102606308412,0.578121096430063
-340,grasp,12m,PC,0.529612417329835,0.531169383305761,0.467246615017328,0.529791531454915,0.62346217522531,0.611425920112743,0.569679612266062,0.528499797839502,0.619207713278706,0.525098247293817,0.552354704918452,0.587789899099013,0.562837613779177,0.565024420708394,0.604173279389767,0.54551479918132,0.61184115724916,0.512535589713226,0.573968369515243
-330,grasp,12m,PC,0.526223633207981,0.535316846551356,0.45921509935362,0.535766394412713,0.619422675006432,0.611193897012501,0.569012437086206,0.534794105517444,0.619541836111813,0.527028672581814,0.557177122591983,0.5838360224431,0.565049197550193,0.564755376182022,0.604671518013858,0.547740842605315,0.61186806218026,0.510072485525997,0.571145768069894
-320,grasp,12m,PC,0.522808850259765,0.53932055444904,0.451617778828484,0.542221511192951,0.615437419424487,0.609229414250712,0.567892382849671,0.542275969528144,0.620483607508379,0.528171120542775,0.561567236045841,0.57983748007333,0.566881256758673,0.564953463601837,0.604815755061137,0.548582883243901,0.610688311291221,0.508078485078307,0.569910900976114
-310,grasp,12m,PC,0.519135209384345,0.543019756007858,0.446082348317702,0.549473958754775,0.611856897988686,0.605601041764497,0.566048100467511,0.549621659169707,0.620681351146036,0.52905548813228,0.564865834399034,0.575955271998117,0.568597362316454,0.565328673898558,0.60399325257562,0.548577970814314,0.608406238490784,0.506442446619691,0.568942554347086
-300,grasp,12m,PC,0.515733332722732,0.546337691303315,0.441457463473179,0.557418899839159,0.608882445068528,0.600801957052474,0.563302858402695,0.556796078696636,0.619757969243006,0.530505072404808,0.566273467486244,0.572291727395543,0.570755871829617,0.565679188749474,0.60237706097117,0.546540991090087,0.604457975984066,0.505314221224404,0.567892622316729
-290,grasp,12m,PC,0.5130402786286,0.549215188247977,0.438175949953153,0.565984793983062,0.606544715025914,0.595190134135211,0.559622040014126,0.563615333239338,0.617939495455894,0.532164245538857,0.566133874435789,0.568778427715334,0.573220781632472,0.566184919244841,0.600546211036743,0.542611527822767,0.59951736534681,0.504666169189691,0.566795583069715
-280,grasp,12m,PC,0.510504596283648,0.5519933459368,0.435551708187344,0.574677266761519,0.60484951892991,0.588692551791838,0.555029076586545,0.569724654234731,0.615115473479901,0.534761818942168,0.564933983727866,0.565329073589992,0.576124337329849,0.567098624932631,0.598555580679466,0.537540749763743,0.593543817116431,0.504519227910609,0.566182726345179
-270,grasp,12m,PC,0.507572090461634,0.554841562806728,0.432059872157477,0.582717883827023,0.604036453973862,0.581420702248341,0.550255219836711,0.574586808174605,0.611888805835731,0.537646553867725,0.562718200215881,0.561842247844985,0.58013900120186,0.568272080111248,0.596436167886425,0.530905047914551,0.586091903274717,0.504696141651011,0.565023713272351
-260,grasp,12m,PC,0.503913739182637,0.557861590767247,0.427205662916267,0.589379474029838,0.604275467101888,0.574056364984226,0.545527077481361,0.577460368256172,0.608944743719925,0.540724375945061,0.559711067103417,0.558693640733322,0.585042619020989,0.569806241955181,0.594426876470839,0.522538142803326,0.578505522856106,0.504660212426688,0.563278398245713
-250,grasp,12m,PC,0.499245620397426,0.561329346446516,0.421221087617914,0.594626710005547,0.605624813378851,0.566882570867028,0.541119261464201,0.578079520180794,0.606587595096252,0.543844855959625,0.555956202180929,0.556166245602232,0.589887238204053,0.571852919363729,0.592535118808876,0.512692042722482,0.571183427102055,0.504626919289765,0.56121886615685
-240,grasp,12m,PC,0.493900120189392,0.565198029209806,0.415176231141538,0.598658573783383,0.607911029390795,0.560110267760819,0.537377195117768,0.576573457446988,0.604620964788888,0.546928967793713,0.551718291436712,0.554316621510762,0.594554444681677,0.574740234980702,0.590864804389644,0.501683300532445,0.56399314411785,0.504852605545874,0.558882854643605
-230,grasp,12m,PC,0.488668710026005,0.569640970902996,0.410594507264707,0.601794818709426,0.611084439835984,0.554337207846893,0.534424545139775,0.573246359559426,0.602831842796013,0.549798661416843,0.547612641924119,0.553182695137394,0.598599383520195,0.578617143408846,0.58943657478748,0.490229754758646,0.557456863716184,0.504854207100198,0.55656249072263
-220,grasp,12m,PC,0.483486053320887,0.574178996645128,0.406941456813388,0.604813118677588,0.614773419183444,0.549647367404586,0.532084705761664,0.568853300854979,0.600838205245605,0.551653280584684,0.54480404971901,0.552598462512232,0.601669794901573,0.583091918181561,0.588180974726736,0.479496888941797,0.552591963766107,0.504792656263404,0.554169691669546
-210,grasp,12m,PC,0.478719104485042,0.578836054330272,0.405839252013231,0.607798840832222,0.61847649678751,0.545972469681565,0.529857981424025,0.563165107098069,0.598190763422387,0.552205571040995,0.542254029669411,0.552572782783796,0.603442729308477,0.587327996930508,0.587355660952107,0.471310564777978,0.550399606419877,0.505383910671314,0.551820913139912
-200,grasp,12m,PC,0.474397006694799,0.583520486535328,0.408319954513148,0.610226400506288,0.622247667339256,0.543426048094482,0.528051997321239,0.556960642026875,0.59522913138449,0.551660785255508,0.539670590494606,0.553553253236829,0.603949624851419,0.590639043532421,0.586860743071258,0.464497008322081,0.551013240457258,0.506819897222273,0.550259440299491
-190,grasp,12m,PC,0.470626308883712,0.588274166529271,0.413730156917395,0.611915736305722,0.626076364924389,0.542243868573205,0.527211948577959,0.55071208162864,0.592558480273791,0.55054992023733,0.537533133111216,0.555508696132053,0.602965212531002,0.593179892080546,0.586264504949025,0.458577615802258,0.554328191779832,0.509501660028308,0.550003470720724
-180,grasp,12m,PC,0.467731768403782,0.593207915341033,0.420515226182175,0.613603254891007,0.629567996359965,0.541922638309111,0.526135845623824,0.544703764355342,0.590222121635049,0.548953653902616,0.536487942095095,0.557791354993866,0.601093829909407,0.594964813781369,0.585213184509696,0.453240721465116,0.560380549496896,0.512629348526025,0.551058125482943
-170,grasp,12m,PC,0.465516344550234,0.598156433564994,0.428480838833563,0.615337182746824,0.632171682737808,0.542895603506124,0.524963426676223,0.538737695697736,0.587802543425134,0.546988229240596,0.537043285705783,0.55982356717259,0.598517424969295,0.596421825232357,0.583630757771361,0.44809085281147,0.56693508940425,0.516246393275362,0.553590959323902
-160,grasp,12m,PC,0.463975616911938,0.603092852679123,0.437295355667811,0.617101938287623,0.634124486375568,0.544902264023841,0.524082248679726,0.533197176199162,0.584683389601539,0.544608715725552,0.539990542033375,0.561898642420108,0.59508477984232,0.597686803315463,0.58152555980358,0.443061280619728,0.573334136797402,0.5197880488389,0.557009048333982
-150,grasp,12m,PC,0.46284546377138,0.607827804020489,0.445938559963483,0.618078776958962,0.63589406044624,0.547349519770349,0.523673777805455,0.528003103267711,0.581498398539334,0.542383964589635,0.543682913787632,0.563760603968255,0.590132791473074,0.59914833086162,0.578881518433095,0.438635164413929,0.579115864702293,0.523589311138417,0.560861564602184
-140,grasp,12m,PC,0.462887115786279,0.611976442649879,0.453860562015101,0.617440583736336,0.637590585927089,0.55015768274446,0.525045404720241,0.523288574847362,0.578379664391009,0.539899835166419,0.548497939129232,0.565434433646558,0.584127600268648,0.600522956282856,0.575996642163053,0.435506391576669,0.583816158657648,0.527472635724116,0.56469047897697
-130,grasp,12m,PC,0.464230470065304,0.615403055210391,0.460782333293922,0.615699503534233,0.639572388753486,0.552390554396672,0.527661849782596,0.519074809674042,0.576403715716914,0.537410088585321,0.554357263425792,0.567007449714881,0.577953774218639,0.601483412635596,0.573030149375214,0.433487977633476,0.587159976186909,0.531322407181555,0.56800535929497
-120,grasp,12m,PC,0.466757686795993,0.618717279686347,0.466907494894656,0.613124309628004,0.64185844495633,0.554137336802006,0.53107097102189,0.515510001406484,0.57556756160958,0.53440739339316,0.561488680161753,0.568348093873927,0.571554823432141,0.602049966903357,0.57066116121234,0.432753000472443,0.588676011524352,0.535451412168408,0.570989414843183
-110,grasp,12m,PC,0.470114238290599,0.621641585809242,0.471805578257742,0.60992940813365,0.644044134236211,0.555476566157031,0.534724122521675,0.512511895658391,0.574605606358355,0.530937830643298,0.569234493403623,0.570031667932793,0.565425459083038,0.601833361733905,0.568370081740569,0.433763167636102,0.589645275319645,0.539343471231058,0.574079074075264
-100,grasp,12m,PC,0.474045476279139,0.624113009295729,0.47491733736683,0.606434306265424,0.646285052565027,0.556672457408831,0.538861892587761,0.509843213168674,0.574181733797966,0.527384650373356,0.576991449134126,0.572146576455845,0.559744349288626,0.600900185404592,0.566632439857947,0.437227219179667,0.589367646558459,0.542417770105712,0.577518661357181
-90,grasp,12m,PC,0.477940402571772,0.625794374554112,0.476105701003652,0.603685919561625,0.648420006100808,0.556801331033405,0.544043908846868,0.507317228512888,0.574176262973216,0.52358533648436,0.585120478938389,0.574280170628159,0.554187054836098,0.599481936150803,0.565861870744284,0.443190942422681,0.589382787891397,0.54416498625123,0.580154860238595
-80,grasp,12m,PC,0.482145438761262,0.626325899371042,0.476143483543259,0.602880251370298,0.650154750325633,0.555761206464317,0.550077783421837,0.505736242156388,0.573880553741387,0.520276986679459,0.592659358514384,0.57600495149208,0.549355492974598,0.597884708441052,0.565605277109994,0.450643484884375,0.590178474072358,0.544746624968168,0.581712820498521
-70,grasp,12m,PC,0.486743431389391,0.625789435818926,0.475287011134893,0.604122500533846,0.651244822360799,0.553706549877827,0.556188543066866,0.505152410292665,0.573262728615417,0.517252357979123,0.599250976639819,0.577168720012386,0.544628222336061,0.596110175038097,0.565970943844812,0.459098630591059,0.590983266204428,0.544224378384536,0.582497835741625
-60,grasp,12m,PC,0.491632271547306,0.624536064523898,0.474489371817403,0.606879933972371,0.651897854300533,0.55149592958972,0.563405458163794,0.505255801567748,0.572765337403678,0.513778413629598,0.602544785047784,0.577328851129401,0.539590324683695,0.594067086710323,0.566342777277152,0.468293259695589,0.592022571420301,0.54282502911931,0.582245514614063
-50,grasp,12m,PC,0.496630138937046,0.622251804957612,0.473669518142125,0.610541282874002,0.652020716339862,0.548198252350931,0.571415772415379,0.50540636033865,0.572334357017541,0.510304324633202,0.601590986888919,0.576478668473152,0.534899561618477,0.59185078215029,0.56671854487331,0.478887975664954,0.593603576745501,0.540721087042991,0.581617078926438
-40,grasp,12m,PC,0.501611881537462,0.619527553597483,0.471609014176113,0.614486786103924,0.651775242311874,0.544778648706122,0.579273491956383,0.506219235710633,0.572033841451093,0.506749916782342,0.596511545105105,0.57463328938718,0.531272880940098,0.589565213631693,0.566822691236754,0.491876131970441,0.595721048244201,0.538027688364235,0.580905632624805
-30,grasp,12m,PC,0.50598270639149,0.616875081739122,0.468631645756064,0.617835968252872,0.651239785684194,0.541870340634416,0.585448336887777,0.50685238752461,0.572278829210207,0.503268571754476,0.589514202761444,0.572464857072162,0.527818167835207,0.587389138714142,0.567003627538862,0.506392810389248,0.598202687065714,0.535466428379332,0.580423703393864
-20,grasp,12m,PC,0.509874218600258,0.613816715819292,0.466148335742684,0.619973903476896,0.650701803512717,0.539293864839136,0.589394750607908,0.506535591121748,0.573111216749109,0.500355339455578,0.582270397704469,0.569490464393427,0.524807990441674,0.585373239884836,0.566931740082543,0.52191504967207,0.600007974086437,0.53388402580276,0.580395397104351
-10,grasp,12m,PC,0.513357037028197,0.610281882380118,0.464598705310126,0.620457075356995,0.650002382811828,0.537487757541769,0.590963237731884,0.505015465766666,0.574539051265068,0.498449745501568,0.575228144236562,0.565732010257794,0.521568054495486,0.583707341778041,0.566282891492521,0.537771603966908,0.600379328954663,0.533073510577308,0.58078504698937
0,grasp,12m,PC,0.516411618251257,0.60689195829384,0.464512547583866,0.619742798295745,0.649147742029712,0.536392018385738,0.59016450360746,0.503057035466696,0.576059754033944,0.497723998722598,0.568952956240136,0.561071397614188,0.517823304486304,0.582750752817798,0.565259060604039,0.553450950003266,0.600027928687878,0.532485226373947,0.581302620679798
10,grasp,12m,PC,0.5190662629173,0.604012788061601,0.465577130288982,0.61836148584579,0.647901224689129,0.535547613096449,0.585738451645606,0.500951108297843,0.577782617997934,0.497789731333102,0.562101285447382,0.555546440149048,0.514113984460244,0.582951880959511,0.564201731483856,0.567663469824482,0.599334828257803,0.531794218636696,0.581788543310862
20,grasp,12m,PC,0.521019424384238,0.601841031253933,0.46725210472572,0.61618298976604,0.645818876240561,0.534197654517069,0.57905139022803,0.498226069971554,0.580629497337568,0.498121548580148,0.553839101507185,0.549214405079178,0.510402843593481,0.584653945442472,0.563181102614955,0.580410692940549,0.597989524854135,0.530651725760277,0.582195955902785
30,grasp,12m,PC,0.522352400720559,0.599692655808751,0.469692611349746,0.613106395996492,0.64304608431407,0.531866289547751,0.571599310371804,0.495689791083729,0.584690440375218,0.498628658895194,0.543874388017374,0.542804895502673,0.506814672659404,0.587322674394415,0.562447874402009,0.590513080246988,0.596345184765722,0.528981762728307,0.582275621395287
40,grasp,12m,PC,0.523283660862428,0.597669972900927,0.473549414677758,0.610066312794864,0.639762781440526,0.528703972823338,0.564392060362175,0.49287187834695,0.589291328425555,0.499474467442607,0.532290655616953,0.536243609436034,0.503553131272911,0.590749661237223,0.562398067766572,0.598408230195071,0.594968053760993,0.526937278333178,0.581658326786263
50,grasp,12m,PC,0.523649880872541,0.595573524119214,0.477246496170742,0.607385984201081,0.636165055942637,0.525088765065237,0.557153767882835,0.49033663869927,0.593644991135528,0.500649514073921,0.51991172592738,0.529298790396517,0.500820625310692,0.594909130980307,0.562728692583897,0.604972467153422,0.593494680874873,0.524997349159322,0.579809123228084
60,grasp,12m,PC,0.523481240712709,0.59346873173471,0.481517307841446,0.60554737762627,0.632469092034243,0.520726902732144,0.549979994294703,0.488805154056956,0.597698514040604,0.502494648063698,0.507437557262973,0.522281147315053,0.499085008256926,0.599523031171534,0.563605480138603,0.610315855842516,0.592287427141502,0.523690515709745,0.577856991846897
70,grasp,12m,PC,0.523358174749765,0.591113741768093,0.486473942915823,0.604333488646767,0.628629444692787,0.515254979291646,0.542958716824721,0.488178787394386,0.601301299613909,0.505130086851659,0.495102620748885,0.515203737695241,0.498409679722852,0.60448569273312,0.564955573096616,0.614724547632691,0.5913164895323,0.522863789415345,0.576305305163267
80,grasp,12m,PC,0.52313805664501,0.588268300934915,0.491423719960175,0.603261887728627,0.624485940780491,0.507721771219749,0.536931128183555,0.488436775057005,0.604012704156672,0.508753827832339,0.483152823244896,0.508653316225231,0.498559858666205,0.609338550756449,0.567002196076139,0.618302003102311,0.590402871632544,0.52289794713471,0.575103117800131
90,grasp,12m,PC,0.523249958607444,0.585355747852289,0.495892243970225,0.603142495583208,0.620055148336638,0.498391584965109,0.532449477712873,0.48963981365816,0.606031706483414,0.51385551586935,0.472315462910286,0.502171942643964,0.499438606111367,0.613962529974591,0.569465877127295,0.621651506300559,0.589114854767684,0.523423085494473,0.574528296871012
100,grasp,12m,PC,0.523680832776562,0.582687390338499,0.499286079862132,0.603930181862963,0.615685265130697,0.487326331147021,0.528799649453767,0.491922996793288,0.606947827492791,0.519960766519666,0.462561909587954,0.496358266412651,0.501046804278902,0.618365023376544,0.572094974237306,0.624876004813853,0.586789851078713,0.524391231865816,0.574864279408133
110,grasp,12m,PC,0.524453190598954,0.580746454594926,0.501743077114224,0.604735809365192,0.611278729017822,0.475639023127775,0.526203155238778,0.494924054047765,0.606556984658968,0.526371964152787,0.45388594124389,0.49214526841344,0.503476504016066,0.622258888830855,0.575031975133635,0.627831262125159,0.583089046602827,0.525940391223259,0.57519035553426
120,grasp,12m,PC,0.524949899862395,0.579178492794377,0.502358533463803,0.605599785548976,0.60731400611717,0.463079774165581,0.524241604392332,0.498304013759935,0.605220574467161,0.531820338053321,0.446202269492371,0.489723433437675,0.506692655309466,0.625143196485043,0.57854764857925,0.630891271953676,0.578572960175328,0.527967845708142,0.575243230484549
130,grasp,12m,PC,0.525017896869192,0.57768435826728,0.501201484041926,0.60705510718494,0.603646847593201,0.450069779233514,0.521827704965276,0.501955916179813,0.602938080586711,0.53561957740012,0.43948394232869,0.489153046930745,0.510152930411459,0.627140689448849,0.582796666585245,0.634123667763754,0.573679855578051,0.530381108264719,0.575384526577647
140,grasp,12m,PC,0.524388646493001,0.576116063634201,0.499071606229795,0.609394662959206,0.600233246957631,0.437287732805487,0.519686643060801,0.50532284648157,0.60030308467031,0.538130409983087,0.434133999902185,0.489979319406653,0.51373783696465,0.628547535384284,0.58735992687785,0.637355076608603,0.568450553545821,0.532927758628843,0.575753403430467
150,grasp,12m,PC,0.52313837723298,0.574266933518023,0.496743923281405,0.612418640515171,0.596676955562677,0.425371979047375,0.518384181331306,0.507986441836532,0.597696471849436,0.53980009623983,0.430739231266169,0.491660942243315,0.517116606133555,0.629321924717026,0.592083664143458,0.639816255289615,0.563390265751622,0.535490105936564,0.576448676796883
160,grasp,12m,PC,0.521200085093516,0.572436238608649,0.494756366933034,0.616619402157341,0.593255021424046,0.415086165539871,0.517679481795416,0.51064870327651,0.596095988544638,0.54091012426767,0.430507598714627,0.494406770462986,0.520770088811945,0.629141510536511,0.596489072979701,0.640472903206399,0.55878240381274,0.538023339621606,0.577510441148679
170,grasp,12m,PC,0.518359460116773,0.570369375170951,0.492817944406484,0.621514368669971,0.590248249683809,0.406254098939561,0.517486849956874,0.5135057614655,0.595359793332895,0.54217598651745,0.432575415138617,0.498082108286185,0.524489094974679,0.628221666971209,0.600459003512528,0.638721328819783,0.556063218952914,0.540219712626085,0.579181601760742
180,grasp,12m,PC,0.515046146045869,0.567588984159233,0.491369594637571,0.625543238952107,0.587966334502333,0.399424168724563,0.517967111324974,0.516496816410037,0.595499912654386,0.543852377029679,0.435747834445125,0.502851033272335,0.528172721082229,0.626708757452778,0.604213078313132,0.635954832769028,0.555336219642837,0.542160571387386,0.580842757167512
190,grasp,12m,PC,0.51122964868317,0.563914677273539,0.490820421430854,0.628269233419817,0.585992486111145,0.39488910382907,0.519047070364602,0.519960118255491,0.596043214576354,0.545636413439845,0.439424280099719,0.508321345763856,0.531611263570086,0.625063395395119,0.607445679580834,0.631891299597169,0.555804558341109,0.543868946632842,0.581785533074981
200,grasp,12m,PC,0.5071722391766,0.559553887034875,0.490632255994278,0.630389492742418,0.58422519515206,0.392871280731411,0.520237457864908,0.523724123055836,0.597077289842835,0.547352159748075,0.442563269224497,0.514426842481162,0.534400341009505,0.623601927235634,0.609911043329753,0.627165490891474,0.556759227170599,0.545157623332064,0.581474614107947
210,grasp,12m,PC,0.503009083390728,0.554021067017551,0.489727703533908,0.631534567024577,0.582990261731678,0.392958659102747,0.520607181085771,0.527405646018974,0.598114490863452,0.548705557166093,0.44559574601893,0.521017096189412,0.5378307574055,0.62230349887277,0.611560589584161,0.621382262342933,0.558078792215307,0.545468300286793,0.580450313109215
220,grasp,12m,PC,0.498260815696041,0.547767608552712,0.487893263617332,0.631722665738118,0.581971195357213,0.394771247086431,0.520783445574852,0.529948570964926,0.598660406029818,0.548902507755234,0.449969879345362,0.528415914274616,0.542003435557849,0.62108411002378,0.612230980759967,0.61371387674168,0.560117452660248,0.545363565400585,0.578976811245181
230,grasp,12m,PC,0.492969633493541,0.541214148337005,0.486126283098975,0.630880412557119,0.581017939568864,0.397064608115408,0.521135154390643,0.531483364269685,0.597745148165104,0.547820744988024,0.456519366741102,0.536802382271705,0.546361179023343,0.619884381335392,0.612070070456672,0.605393647987817,0.561931188716634,0.544809413761404,0.577396423531659
240,grasp,12m,PC,0.487967669706731,0.534991041961298,0.484989825693061,0.628997172706334,0.580137409463717,0.399487259933871,0.522209946466333,0.531831812999455,0.594882882959707,0.545554708479663,0.464962034894389,0.545419860690125,0.551126945831171,0.618183475977249,0.611394061416023,0.597611000040495,0.562456054780335,0.543557917987222,0.575840686137015
250,grasp,12m,PC,0.48356586098967,0.529221463327165,0.484151879608467,0.626805328529862,0.579551468432064,0.401909153044809,0.525192344338181,0.531070623713812,0.590795924275748,0.542629599493295,0.474233017546176,0.554119923069893,0.55562273703904,0.616604185028897,0.610240952088929,0.590731008846446,0.562504826909667,0.541993402913128,0.574394207514648
260,grasp,12m,PC,0.479735968999338,0.523925787200723,0.483576859618481,0.625017626244736,0.579567762227745,0.404852181060686,0.53009082476933,0.529619375768678,0.586350931236461,0.539735745617578,0.483782365305545,0.562849721562408,0.559462784304024,0.615256843618407,0.608439486737185,0.585290067625154,0.562513049844145,0.539974227716022,0.573177720926569
270,grasp,12m,PC,0.476480886281441,0.519088471183415,0.483906141967142,0.62314627209788,0.580132113309448,0.408173620001745,0.53617984619506,0.528232376419738,0.582235386687325,0.537264149880653,0.492121278261043,0.571300604007094,0.563016806331222,0.614570736216588,0.606687721872894,0.57995671525913,0.562732348792655,0.537989480860637,0.572427578860532
280,grasp,12m,PC,0.474102122378276,0.514789789799945,0.48445560993452,0.621227896986653,0.580770103077967,0.411407095282283,0.543053285791122,0.527649297035746,0.578407446988262,0.535213609240958,0.499017632342652,0.579324741615945,0.566687669051596,0.614474214677871,0.605512133332666,0.574702684139703,0.563094856605808,0.536117833084208,0.571741386355801
290,grasp,12m,PC,0.472911574092095,0.51133278995319,0.485038551009707,0.619095837093324,0.581109083361938,0.414677253015039,0.549621115202577,0.528558964054887,0.574337024433654,0.533611301950939,0.504408238071509,0.586751897459823,0.569863874244686,0.614541248963884,0.604783957298376,0.569991098246738,0.563758900572479,0.534731590439535,0.571169723134223
300,grasp,12m,PC,0.472905615782643,0.508649950130244,0.485432995298863,0.617047113327639,0.581514806678043,0.41835832051898,0.555140514038045,0.530628342737835,0.569404461686609,0.532215524963845,0.508400798672695,0.593628180232126,0.571913674474873,0.614618018750484,0.603545927845983,0.565788967405172,0.564554418816383,0.533690026518006,0.569970925212613
310,grasp,12m,PC,0.474263619454792,0.506677546616143,0.48602836432837,0.615484111788881,0.582207423821332,0.422703575404299,0.559150058114423,0.533091637033511,0.563488844227556,0.531209163134709,0.511072532798677,0.599287717693036,0.573007197168597,0.614459625265547,0.602030548201667,0.561867211529355,0.565301213402931,0.532576704865744,0.5680726963734
320,grasp,12m,PC,0.476975362118703,0.505089626716714,0.485882332337058,0.614269788998104,0.582895029448644,0.427248119907828,0.560624213692867,0.535444736426443,0.556357476731562,0.530235389883929,0.51286961826294,0.603303239396871,0.573503138444777,0.613649539934862,0.600984288812559,0.558381989105441,0.566134930869627,0.531626978236037,0.56506525674759
