Time,Condition,Age,ChannelPair,connect_overtime_LA_EEG_12_P04_CTS_MTH_chanpair_12m.mat,connect_overtime_LA_EEG_12_P05_CTS_MTH_chanpair_12m.mat,connect_overtime_LA_EEG_12_P06_CTS_MTH_chanpair_12m.mat,connect_overtime_LA_EEG_12_P07_CTS_MTH_chanpair_12m.mat,connect_overtime_LA_EEG_12_P08_CTS_MTH_chanpair_12m.mat,connect_overtime_LA_EEG_12_P10_CTS_MTH_chanpair_12m.mat,connect_overtime_LA_EEG_12_P11_CTS_MTH_chanpair_12m.mat,connect_overtime_LA_EEG_12_P16_CTS_MTH_chanpair_12m.mat,connect_overtime_LA_EEG_12_P17_CTS_MTH_chanpair_12m.mat,connect_overtime_LA_EEG_12_P19_CTS_MTH_chanpair_12m.mat,connect_overtime_LA_EEG_12_P20_CTS_MTH_chanpair_12m.mat,connect_overtime_LA_EEG_12_P21_CTS_MTH_chanpair_12m.mat,connect_overtime_LA_EEG_12_P22_CTS_MTH_chanpair_12m.mat,connect_overtime_LA_EEG_12_P23_CTS_MTH_chanpair_12m.mat,connect_overtime_LA_EEG_12_P24_CTS_MTH_chanpair_12m.mat,connect_overtime_LA_EEG_12_P25_CTS_MTH_chanpair_12m.mat,connect_overtime_LA_EEG_12_P26_CTS_MTH_chanpair_12m.mat,connect_overtime_LA_EEG_12_P27_CTS_MTH_chanpair_12m.mat,connect_overtime_LA_EEG_12_P28_CTS_MTH_chanpair_12m.mat
-1000,cane,12m,PC,0.559327476470006,0.585965413054983,0.365246231611858,0.63336671152461,0.568937524638269,0.517700454370063,0.609540096102101,0.442989315135985,0.469424549928708,0.477941038034442,0.552202856349343,0.438806100771035,0.5626042372808,0.518105213625868,0.586698164618751,0.481323426498034,0.417189536446036,0.530280628979984,0.41290139448898
-990,cane,12m,PC,0.561575869557594,0.576695401638137,0.365466784950973,0.627896836687919,0.56272592106086,0.528809912445214,0.615642264202236,0.440470519658503,0.476377109441825,0.475493456619033,0.545435428104143,0.444146834508813,0.55471460113326,0.513019288174749,0.584054512658804,0.460244192636874,0.414894268737229,0.532867705528757,0.426143267683042
-980,cane,12m,PC,0.564256252785279,0.562861769905101,0.366157262000324,0.617967436925666,0.551161703365878,0.542037503907212,0.625021171341308,0.438708480014217,0.483773826099384,0.473940372571893,0.536398530222689,0.4496055302672,0.550243851468661,0.509879956282275,0.583290158615686,0.440984314784534,0.412376903376227,0.535935241900133,0.437809219482299
-970,cane,12m,PC,0.564779722447284,0.547166066011737,0.367776744819674,0.604552225217013,0.539996224809494,0.557349347788123,0.636234591375665,0.438874878912958,0.490282233647098,0.47519195217833,0.524198548957144,0.455969522151821,0.5481323593429,0.508879178857614,0.582045832079933,0.424952983012979,0.409706105322302,0.540607705072942,0.443985931085407
-960,cane,12m,PC,0.563745633319011,0.530869021405391,0.371628975051048,0.591224732319473,0.532720759966048,0.574937493750843,0.646012142461777,0.439484678891345,0.489144974523696,0.479322878005176,0.511661231842988,0.462945613886317,0.548114338879013,0.508237668126306,0.578642982020503,0.413639983629246,0.40789163549324,0.545947395863632,0.444082625888847
-950,cane,12m,PC,0.561389292689467,0.515855454939982,0.376864574913192,0.58046010296576,0.530725353353878,0.593050460326852,0.650016707302641,0.440976006104748,0.481853562869279,0.485193103839052,0.502482458082521,0.467715998924123,0.550661088154742,0.508665808626134,0.571563478014542,0.410606166523967,0.40972102896793,0.552652523383075,0.443625736909067
-940,cane,12m,PC,0.559331223880169,0.504135349646987,0.380122172994924,0.571912133657194,0.530652435250045,0.609186805401256,0.647284152304189,0.446151250323109,0.476293953579675,0.48955022301063,0.498794581011143,0.471013021256594,0.553236001767797,0.511758824665802,0.562273999871401,0.415017650807422,0.415509668953906,0.560161522266005,0.444290478704692
-930,cane,12m,PC,0.557641304199561,0.492638199532114,0.382944349919398,0.564076991354082,0.530845721533917,0.625091247768883,0.64113396364298,0.451488498496,0.475484974920974,0.491590803927003,0.501319905588522,0.474928572651791,0.552520280296643,0.516199049944688,0.553736584579345,0.423463765944196,0.426515430987377,0.566430820623485,0.44408019730119
-920,cane,12m,PC,0.556486380642987,0.47968550161582,0.385399989137421,0.557564114119404,0.530864843129644,0.638800282036246,0.633965948787076,0.453403512293651,0.479456839046274,0.494318330549185,0.506970871495557,0.478941838072071,0.548787816960383,0.520322156004351,0.546441352698946,0.432069203412843,0.441187739061916,0.569641183266262,0.442760386044146
-910,cane,12m,PC,0.556559507939674,0.46887152481322,0.387479413290167,0.553811201276374,0.529709833013681,0.648128358888295,0.627633614454139,0.45265435531526,0.486979322819344,0.497303866575671,0.513155620610258,0.481320204851571,0.542481444855817,0.521527470671283,0.541068981919048,0.437252367548353,0.456214332653614,0.571252534795196,0.442612890356104
-900,cane,12m,PC,0.556891167643395,0.460291714370353,0.394722938700671,0.552835300181311,0.529602631527496,0.651912319478398,0.619791423461864,0.451119648472252,0.495250433320156,0.50189119398553,0.517929683468709,0.482044051743577,0.535606326282932,0.521767218215861,0.537885289748819,0.441432350781018,0.471089736146343,0.571937760309821,0.446167258787256
-890,cane,12m,PC,0.55926597139606,0.454820781507945,0.405373471300479,0.552087362589388,0.529246863088939,0.647869475403888,0.610059223873667,0.448752079357014,0.50157244392368,0.507333769690779,0.521557849292072,0.47995582871685,0.530961913169416,0.522106921300028,0.536802360922465,0.444521124287576,0.484478732797405,0.570400013072599,0.449770580032792
-880,cane,12m,PC,0.563520647235932,0.453018285688839,0.417604533064741,0.54775690283411,0.528271380046534,0.635717871184605,0.597584621373108,0.446207168966355,0.507681323847475,0.510663151303656,0.521616427276859,0.474715596499617,0.52885170429162,0.522462351662674,0.538794420534776,0.443129857886775,0.497693932049243,0.567285584277787,0.449878306850426
-870,cane,12m,PC,0.566952800914878,0.455706546908039,0.431349019473217,0.540550233629354,0.528835836966576,0.620978172107971,0.580179595196295,0.444710113488215,0.516092307336161,0.509797337035571,0.517246265939388,0.466902180531778,0.528985653526137,0.522980713015252,0.543116406396331,0.441067471542052,0.510707689485795,0.565165027314614,0.449440565527905
-860,cane,12m,PC,0.569429888545681,0.461038868446428,0.443379094244656,0.531311043192343,0.530837010843214,0.604907220867625,0.558225378380849,0.442810340743271,0.523883390003052,0.508280541139848,0.508649867807481,0.459240070156632,0.531088633808538,0.523412897058569,0.549916000156974,0.441079607074613,0.524216267162002,0.563584215395916,0.451290447126406
-850,cane,12m,PC,0.57168571567093,0.465499673618631,0.451075144663935,0.521140454880228,0.532722352516928,0.588808106781822,0.533178715654469,0.439362378579691,0.529653217314324,0.508123308947731,0.497052844018678,0.451518583690788,0.535299600802644,0.523392891569167,0.557283126020463,0.444184720779456,0.53941331110264,0.560522338354261,0.456111319698064
-840,cane,12m,PC,0.573650733056324,0.467666685181573,0.456101722748787,0.511991400559972,0.534387085903599,0.576508277574273,0.510021432698407,0.435023240640198,0.53181583724759,0.509955184309717,0.484708902919638,0.443064500267194,0.540514772481444,0.523032065810914,0.562232141343992,0.454660587752626,0.551550712372375,0.555178704382074,0.46206231998613
-830,cane,12m,PC,0.575055340209448,0.469587402396138,0.459265113467782,0.505190467425739,0.537051653575312,0.570407907443399,0.488805627160146,0.430905142270457,0.528894968769297,0.515079750084798,0.473325133356913,0.434925426745927,0.54564811398827,0.522819030472537,0.565152901673502,0.469601227923745,0.558352684844141,0.548839178584853,0.4694014439709
-820,cane,12m,PC,0.574310327912098,0.473570911275097,0.457373713438806,0.501348957491942,0.540217736686106,0.567616543532139,0.472162245433716,0.427932157876229,0.52509594289968,0.521370000295036,0.462038718553206,0.428329602013891,0.549952253969302,0.52355948044684,0.568021825408771,0.485438445481401,0.560376964138608,0.543654742522096,0.475428795155468
-810,cane,12m,PC,0.572109866125392,0.480523833864956,0.45232325895658,0.497597761701836,0.542743271946019,0.566406651642986,0.457423997471967,0.426453586605641,0.519932492439556,0.525367300530637,0.449843795239775,0.423408191295569,0.549089144995927,0.526571534752431,0.571209396629945,0.501348051372318,0.557187851718287,0.5378771859218,0.478239565705623
-800,cane,12m,PC,0.567367496744494,0.493554206905496,0.447235281940052,0.49330502058054,0.54185444173457,0.565997360523627,0.443148941405656,0.428352870134579,0.51194023010425,0.525909704593834,0.437812338367894,0.420007383020878,0.543528219823928,0.532021591069617,0.575378641912624,0.515960821860313,0.552856058782018,0.532088634434525,0.478310895337191
-790,cane,12m,PC,0.561544977082547,0.508700669916204,0.447593703585079,0.489514951883506,0.536487738925679,0.568593846263688,0.433316964740242,0.433827284266969,0.504661398231908,0.523259568874842,0.423629162724368,0.420004950760534,0.535088312442101,0.537833605899282,0.577337279051355,0.525383514801686,0.550659306442088,0.527499264070484,0.47573777265597
-780,cane,12m,PC,0.555720694819272,0.524211383062087,0.45619029284748,0.489477288509824,0.529379156165873,0.574523121775301,0.430786366073523,0.441786589980174,0.494975487621844,0.51746031186748,0.404040438996593,0.423359551569775,0.525121110730421,0.542496623315305,0.576208476511881,0.533232734492092,0.547151594330832,0.524379561454136,0.474005178083197
-770,cane,12m,PC,0.550512145929932,0.539831531683299,0.468818168576961,0.496815421366467,0.524065798543964,0.57917215066288,0.435590581143148,0.451445002835446,0.484474641013812,0.510444297588841,0.38560215787416,0.42827313826224,0.516358298769035,0.545145545974903,0.572633118942146,0.541793379118362,0.540386579538546,0.521697227320283,0.473361224719941
-760,cane,12m,PC,0.544704065745088,0.555620229249808,0.483562270563643,0.511436009495942,0.52269298771294,0.580216791388056,0.443000991007641,0.4611452689828,0.47298553530752,0.50739447738402,0.372064673016096,0.432762364358113,0.50969449357204,0.543172701240889,0.568683626831303,0.548193572021441,0.532364016661475,0.519835513206216,0.471709746192386
-750,cane,12m,PC,0.537342130851136,0.571523654721951,0.496493479554587,0.531058445181912,0.525109066652356,0.577664871825917,0.449844878202326,0.469154772822204,0.462882293560401,0.509195595762992,0.361292054545619,0.437625235275763,0.504490096078995,0.538462635183065,0.566421788051665,0.547919292615751,0.526429906610866,0.519141704980979,0.470772492036917
-740,cane,12m,PC,0.528485356112588,0.587061456878323,0.496352533600189,0.546575426125216,0.530412854177877,0.570999817132434,0.45864408574106,0.474133940070023,0.458414527834593,0.513247470882672,0.354255066752877,0.443009073905129,0.502454979103584,0.53313249604867,0.564533778191582,0.539979777872848,0.527332930041285,0.521138531677407,0.473466942328228
-730,cane,12m,PC,0.520241463213678,0.601800494166685,0.487874955979983,0.553598549977548,0.536088812059642,0.558916471835803,0.468450014893224,0.474634413447119,0.459831754530327,0.51812225384389,0.348144255860182,0.446446431125072,0.502555181213747,0.528566707596759,0.560379067167243,0.529218259307156,0.533919421985728,0.524438689788501,0.480364757901536
-720,cane,12m,PC,0.51466554647737,0.614849230184287,0.477537018471813,0.555536795529547,0.538521338686606,0.540975555726183,0.476448116204978,0.472861014357301,0.468328519455036,0.524467063990481,0.340812510142369,0.446950471749136,0.506295855865731,0.523624799470074,0.553587597899284,0.516309940071911,0.543555353612797,0.530253863338526,0.488546888934849
-710,cane,12m,PC,0.510812632568284,0.623957872434338,0.466263430855315,0.553135966746194,0.536969781364773,0.517355309022521,0.488708332917201,0.471127325175788,0.482060559162448,0.531357782088047,0.335454332345964,0.446917159714218,0.511315184060446,0.518558158685446,0.545493002685877,0.50538536061936,0.556297398308682,0.539413891074957,0.49555170871495
-700,cane,12m,PC,0.506539178179879,0.627587809053323,0.455898747192737,0.549005366772744,0.534239607011641,0.494955866830767,0.507339277305685,0.470223397468241,0.498006172234008,0.537988810572579,0.332440474722508,0.448673110436907,0.515792790743453,0.513134503982349,0.539265414601561,0.498188450242629,0.569333851038951,0.549187265901135,0.498905613787227
-690,cane,12m,PC,0.501623248405266,0.624267515469639,0.448358225371394,0.54772780263003,0.534854381260539,0.473489721493925,0.528776461532567,0.470818306561912,0.510838268918631,0.543369714598142,0.331292981175426,0.450418535855797,0.518412899771343,0.505918986968578,0.53553362890706,0.492993317763003,0.580140962898564,0.557845916997006,0.501420587642149
-680,cane,12m,PC,0.496903955622668,0.612967565501007,0.444493420293619,0.549866348999465,0.539393858692208,0.4527064670987,0.550421816796998,0.473738815145427,0.512905750914112,0.545205266949044,0.328907466379468,0.451659868449606,0.517307502904156,0.497381658666737,0.53438116683803,0.489538847684998,0.58842093835234,0.565080206802597,0.502444854859701
-670,cane,12m,PC,0.490992046428557,0.597589476541868,0.443870432698351,0.555257423208715,0.547174626455968,0.433760968128787,0.570376149469955,0.479506782213774,0.504791528623243,0.541482872222565,0.334672518710495,0.45108658619053,0.513474370890973,0.486636001360654,0.533143112640422,0.485115292852447,0.593208591571324,0.570453434638531,0.50426208374518
-660,cane,12m,PC,0.484036737873973,0.581195332821386,0.448929941535845,0.561387266095359,0.556085917925296,0.419144748547053,0.590340712684546,0.487204381069474,0.486169891824764,0.534831993642362,0.348083746458388,0.449054882414406,0.50672468210101,0.474051901905687,0.530292920979971,0.479877346053002,0.589152038625996,0.573751642082346,0.506053240160011
-650,cane,12m,PC,0.477247231671895,0.566265047952013,0.45974694274316,0.565116640268153,0.56560645143793,0.407675045478935,0.610026391930819,0.49642388157508,0.464521760738949,0.529450051734469,0.366790738524443,0.447328317667891,0.499467815369683,0.464319310271829,0.528276567845322,0.473110402197359,0.580695509904172,0.5751766058836,0.507479063122006
-640,cane,12m,PC,0.47142212215053,0.55500564302047,0.472405662288273,0.567996245636191,0.575252369410574,0.397680004057293,0.628589888449874,0.506958675262254,0.446781823932557,0.524303062905481,0.390396259535728,0.445410594092477,0.490477200693971,0.460190825372906,0.528322196974864,0.46610542957866,0.5685026025979,0.573806675471563,0.508950215897355
-630,cane,12m,PC,0.466171781845979,0.548232209807143,0.486391092434676,0.567795493171929,0.582380798926059,0.390943729818491,0.644451784095078,0.518711688465046,0.433261796523702,0.518354894988271,0.420646065028704,0.442921573777615,0.481762174993186,0.461837052908635,0.529646290045607,0.461626913495408,0.554843787655043,0.570864086129925,0.505788038719773
-620,cane,12m,PC,0.463130177522662,0.545390532140176,0.496716460291846,0.564996525246217,0.585171866643493,0.386897451251972,0.654733115851619,0.530177659036561,0.427746742952361,0.514469576194438,0.453595372598638,0.440160229926395,0.472277239511328,0.467083563057125,0.531612970185784,0.462607266845589,0.540212303712535,0.566460278026627,0.49663080894343
-610,cane,12m,PC,0.463955892911551,0.546740983900114,0.503052241009015,0.559983074050403,0.586588074677633,0.38594021715716,0.655368458564669,0.53748727632831,0.43282583795752,0.512929859630889,0.484336070371599,0.439297917917308,0.462559441138291,0.475329836679945,0.532682826115447,0.470844930870719,0.527791301186366,0.56297537509,0.486448507577393
-600,cane,12m,PC,0.46678878165535,0.547197128835647,0.507781257926655,0.555921148622445,0.58585499864538,0.389983980459824,0.647836844310594,0.541666049093481,0.447580171168178,0.511917191677575,0.509986175841835,0.440165626314913,0.455805377426101,0.48306931708991,0.533160449635262,0.483880659920087,0.518989588438034,0.559402814342795,0.47896229704974
-590,cane,12m,PC,0.468421707084207,0.542043487860792,0.510207578346135,0.553567319539153,0.582889217979361,0.396458593049922,0.631147404444207,0.543596328356918,0.466520439927427,0.512830678592847,0.526376949662884,0.441042080306139,0.451855033684658,0.486966288957121,0.533647494180523,0.494702823837663,0.510365619475874,0.556427263861587,0.474255276018086
-580,cane,12m,PC,0.469073817353551,0.533612318396804,0.511909203046804,0.554831280599879,0.579353111294538,0.403657693791078,0.607266648242252,0.544687284202141,0.478833752591396,0.515109401657846,0.533279749529966,0.440353303913273,0.451567841298141,0.487111516416885,0.535132546184014,0.500997504481975,0.500657760687297,0.554288772810906,0.472932618600021
-570,cane,12m,PC,0.468424232539489,0.525961622512166,0.512100690156873,0.560082916720896,0.575807189542298,0.411826188087578,0.58336454065955,0.543405629126603,0.485890566020676,0.517956473133182,0.535506332539949,0.43683286672001,0.454752275460986,0.486392143714504,0.536460088399957,0.508838254592113,0.493131280192255,0.552361126284507,0.475689250926901
-560,cane,12m,PC,0.467611008233422,0.521551097846041,0.51181358280178,0.565960555868868,0.570181440808643,0.41987641893033,0.563935875423464,0.541834402688816,0.492458162982229,0.516621199887331,0.535586137221655,0.433343979103947,0.461215596736234,0.484256113648344,0.53665126340427,0.518255409110604,0.486722734196013,0.551019847871892,0.482652139247731
-550,cane,12m,PC,0.468114307065983,0.519968643709097,0.510928403378812,0.568104425136985,0.561076917985228,0.428079982058072,0.548379951483248,0.541216781370859,0.502028871599735,0.511510087563502,0.534214577808587,0.432158923460337,0.46897446956969,0.48047334368283,0.535611277258758,0.53007939082166,0.480001546768509,0.550328760545777,0.491809917007625
-540,cane,12m,PC,0.469801992409166,0.521210048683436,0.505692364105673,0.564154300400216,0.550427871977226,0.432877165450362,0.534794882001356,0.54124439095703,0.515033759852863,0.505564105909831,0.53333686539738,0.43371659465817,0.476684412617052,0.475936286628314,0.533206470991989,0.545476948744005,0.471439266426253,0.549716979555618,0.501414325232294
-530,cane,12m,PC,0.473693003480438,0.523861501328587,0.497943938464453,0.554846498587882,0.540601140236152,0.433801071406031,0.52032744676124,0.5409126374281,0.524593587467466,0.500055812656778,0.529125658393956,0.437349972531958,0.482703955322765,0.471462753513136,0.531779937634329,0.560926872436235,0.46104918215395,0.546842747333339,0.508472748756109
-520,cane,12m,PC,0.479898656706928,0.528969782599977,0.488905436954191,0.547486607361071,0.533240114359078,0.43446777846072,0.507697225266905,0.540148238072478,0.527699059378911,0.496934364325951,0.523327324934262,0.441632885072703,0.488672176166419,0.468003486460285,0.530206431499803,0.572620893324643,0.450649172166184,0.544113936006061,0.511444111952053
-510,cane,12m,PC,0.485977009618826,0.533556001572895,0.47824100105678,0.546935681280649,0.527920836033296,0.43847105252349,0.499567588449322,0.539750893406158,0.523236189584918,0.496423165089546,0.51612862032557,0.445999962894094,0.496321650705764,0.466337167704355,0.52890687607192,0.580419429400961,0.444327043725301,0.539862784515696,0.511215708932447
-500,cane,12m,PC,0.491068803644132,0.539297634693582,0.468012811856938,0.554791388388947,0.523193914830993,0.443758447888982,0.497564986205332,0.539697381947153,0.514035918261551,0.497105653928076,0.508734272713777,0.450314291143028,0.502937909627915,0.466568892626418,0.527429939202676,0.582301770837372,0.443767259315327,0.533673702616293,0.508858890308136
-490,cane,12m,PC,0.494167458316062,0.547377761606026,0.46110359269162,0.563977288070026,0.51687692013293,0.446628575696576,0.499253576529384,0.539914858790496,0.506613654489404,0.496152131480415,0.501416248242924,0.453339371637065,0.50739710375411,0.467892170104027,0.528322685946268,0.577918038313989,0.448428179833349,0.526230634853798,0.509111212037551
-480,cane,12m,PC,0.495317926972553,0.555666071443133,0.456817451425937,0.573069718443887,0.506127847661459,0.445340927293354,0.503105110645293,0.539217800050287,0.50697416526744,0.493223517115675,0.494129264590353,0.455172713559811,0.509782997698548,0.466555973738585,0.530011503089853,0.567649529531042,0.455731128536645,0.517731987314618,0.512851385838653
-470,cane,12m,PC,0.497534646516479,0.563121509255352,0.452731329481584,0.581107064085401,0.491352529992767,0.441314728769952,0.512778820203987,0.538802271967575,0.511796721361075,0.490877006717834,0.487802360179055,0.454676950978909,0.510432957998994,0.461740792943724,0.529524648603199,0.554177577441001,0.464199655675707,0.509609035806151,0.519156109487929
-460,cane,12m,PC,0.500062658351493,0.567491311224504,0.45090120644136,0.5855517437032,0.475016613361918,0.440368020768305,0.52622430347551,0.537712904616783,0.514629346228774,0.491798664212326,0.482434503176085,0.452550390355971,0.510865869850937,0.454168427249936,0.528288058637123,0.539296628490868,0.471529635174581,0.503743587131557,0.524724552412671
-450,cane,12m,PC,0.50271587691913,0.573245385081993,0.452669953929521,0.586914722283447,0.461432672944819,0.442160199933708,0.54146114208535,0.535966207451944,0.512258046232274,0.494736537307934,0.474980654599654,0.4499777894752,0.513089749440511,0.448160452223343,0.528041429634035,0.522917372917889,0.477727488661095,0.499379972710056,0.530131014761405
-440,cane,12m,PC,0.504751612152043,0.582202671597415,0.45464715421167,0.58783987381827,0.450899369817153,0.44575931138347,0.553830861728634,0.533024788251744,0.503879321420914,0.497044518050557,0.469650215237115,0.448749632181029,0.518634403101217,0.446920806302412,0.528849661199612,0.507437152865854,0.482638428571126,0.495975479506117,0.536623237828746
-430,cane,12m,PC,0.505408698285387,0.593030297050408,0.45314783033748,0.590315036069754,0.44405777942633,0.44820763329356,0.560196378515648,0.529767994823868,0.490399191764888,0.498137119228638,0.468223295728459,0.44970844466142,0.527086049048146,0.451566393271884,0.52901502481984,0.496032180224166,0.485813885701502,0.492879187005336,0.541534224055932
-420,cane,12m,PC,0.504007974431126,0.603669461871438,0.450892087078654,0.596755220141916,0.441046203700504,0.448968867369753,0.558903367441443,0.526138927639143,0.478511738611005,0.497593407528197,0.466411100304882,0.453667139652315,0.53420259468785,0.458086598948277,0.528184876438106,0.488600758464833,0.4857318424643,0.49053330367059,0.545233064846135
-410,cane,12m,PC,0.501821295384955,0.611698935926692,0.448276873402141,0.605186659975268,0.442756020015226,0.449539395437185,0.554973056808673,0.520850929815227,0.471806346600546,0.497965522286635,0.462591919257069,0.458785705580416,0.537446253464984,0.46304603816373,0.527258092307407,0.481985178505567,0.482524083600239,0.488674863550033,0.548414738819185
-400,cane,12m,PC,0.500137392656717,0.616338311611146,0.442687238144665,0.607229339213664,0.449528802274538,0.448986336518402,0.54868598335573,0.513407281592125,0.471700890814963,0.503299855191286,0.458322353158737,0.46295255801724,0.535921130342838,0.465513212269428,0.525728208431725,0.476403829124413,0.477674766067828,0.48831951751646,0.551466688253898
-390,cane,12m,PC,0.497534354444897,0.618515768435068,0.43369302481196,0.599171716184627,0.457068518772362,0.447585519726037,0.544238164060423,0.505441036618263,0.478075440994385,0.513694249045975,0.454777136986041,0.465742812465114,0.528757379377501,0.465815374525112,0.523935369352659,0.467618661297528,0.472662218920711,0.488390454638072,0.55262108738963
-380,cane,12m,PC,0.494460619007352,0.618815301798628,0.426943137821883,0.587551881831596,0.46403548962451,0.446058890902408,0.546280565679959,0.49830936390315,0.486388195786814,0.524268194477821,0.455123568785962,0.46688930743048,0.514495544111743,0.464651475285839,0.523696550505711,0.456288958496427,0.46632185576505,0.489554528806259,0.551238894483608
-370,cane,12m,PC,0.491048678681505,0.616354204636312,0.424895881830209,0.577170127432497,0.471146527791667,0.443360189394352,0.552993911559295,0.494196907699503,0.491118704847353,0.532394979385332,0.463005165142956,0.467099443889223,0.496538567522622,0.46202737825904,0.52542789182509,0.448452665866993,0.46249766118905,0.491451148133309,0.550689085978334
-360,cane,12m,PC,0.488487862959223,0.608385406639606,0.427010005708785,0.567840886187263,0.478299013404122,0.442329264921139,0.561034197523899,0.491958856919762,0.492059867497041,0.538937110589301,0.477331623327763,0.46658442170107,0.477659487930975,0.460146177903955,0.528847105084323,0.449410802879315,0.463335659247213,0.493390179226803,0.553075986798006
-350,cane,12m,PC,0.485269829516994,0.595793333992015,0.4323175946062,0.560041890212629,0.486251541351074,0.447106858541267,0.567791492114663,0.489072684069311,0.49257457358959,0.544665085562051,0.498032584419041,0.466023030219847,0.461661537325269,0.45854685366909,0.535459343994667,0.456810166632205,0.469710578959823,0.494282356417268,0.558686422095087
-340,cane,12m,PC,0.481942053223776,0.580575098197978,0.438554022841206,0.556561898901662,0.497261124585291,0.456552891554208,0.570546556814429,0.487794355265453,0.492845009846687,0.549728235494233,0.522568306949042,0.466715846977358,0.451892849950118,0.458524400172356,0.542991395972433,0.468133988364679,0.479572061155198,0.49253219358836,0.565841791889252
-330,cane,12m,PC,0.478814329472999,0.56235363033921,0.441662301048222,0.55698226372199,0.509911478150046,0.467637737625967,0.567885245571377,0.489840289871541,0.493195040402427,0.554715899554239,0.547215548700076,0.467099405386179,0.44972335030476,0.460047652901026,0.548783499294578,0.476612913480799,0.48968167116552,0.486469000748103,0.57486693201442
-320,cane,12m,PC,0.478291857988427,0.546376671473228,0.444218972197784,0.557416541866721,0.523312243314437,0.474369072004249,0.564573192152169,0.494056873554157,0.493465981378788,0.559255370503659,0.564946127007067,0.467528979518092,0.453853729714209,0.461442335287931,0.55214417632117,0.473821944668899,0.498092165155768,0.477286581245692,0.583650101927236
-310,cane,12m,PC,0.479975301255335,0.536715860685676,0.447136121460496,0.555407018612637,0.535806186672325,0.479375108611699,0.559875155153091,0.49894726023062,0.496330160162576,0.561350378163149,0.578910806348351,0.470292321347987,0.460457051383996,0.461208521051766,0.552736499403057,0.460633411562752,0.507257248563332,0.468282397949403,0.591230899436251
-300,cane,12m,PC,0.48230293090293,0.532280277341052,0.448185482543374,0.550424701621512,0.547789484027035,0.482648238603387,0.547871190320832,0.503793567331134,0.502330578418002,0.55742741040093,0.594136638546784,0.474153445570111,0.469665198820999,0.461979434328216,0.550177318873015,0.441885124770859,0.519885166386199,0.462139261983048,0.595489237072056
-290,cane,12m,PC,0.483032359253099,0.529832816627439,0.443766303703566,0.546720180348733,0.558444818166038,0.485389720993346,0.5291010762107,0.507243240713451,0.510085102851807,0.546869673066581,0.609125653127649,0.478277411011234,0.480475412316859,0.464823151382587,0.547487829233865,0.422015802817084,0.534564895694894,0.458896692456512,0.59672279931279
-280,cane,12m,PC,0.482892697128979,0.527620895753172,0.434364621300521,0.543035909330945,0.566560844638201,0.487363730715829,0.505752077129094,0.506796080795425,0.516518344562256,0.533261095028195,0.621672969424418,0.480888493445199,0.493304266561269,0.469121677248395,0.544384784948742,0.400950270849406,0.549902783427128,0.457191943136387,0.596283476008833
-270,cane,12m,PC,0.484777812177729,0.524878544401881,0.419738179828133,0.53846179523933,0.570074415062475,0.488142504025136,0.480669658058677,0.502626656954904,0.520944132042054,0.520731630126522,0.630274195351983,0.481112446851397,0.505866295024949,0.473384827540531,0.538910923740266,0.381380615985615,0.562339270692964,0.45761973477209,0.593001841884684
-260,cane,12m,PC,0.490182023579783,0.520647917355534,0.399517158946937,0.534001983058968,0.566952050306053,0.489640068824835,0.455627168015058,0.495037263948536,0.521169093284431,0.509080897425427,0.630976663174931,0.479119541630022,0.515035584480154,0.476555480453274,0.53318950488947,0.367834790136519,0.571117615180505,0.459033948940686,0.58716143521624
-250,cane,12m,PC,0.497804223569615,0.514321205505153,0.377813658887552,0.531559013276748,0.561585906136051,0.492057057235146,0.430088968855982,0.485256409551317,0.519085040236418,0.49874221636135,0.621473044228874,0.473842404925648,0.519726270994326,0.47692976569161,0.52708997175714,0.364668663320629,0.575457028712102,0.459875739635968,0.581508167494571
-240,cane,12m,PC,0.507838589381794,0.506538543904786,0.359351780175966,0.531388356932848,0.55555694256092,0.491321796931833,0.405877649950898,0.478529536069491,0.518457375008036,0.491309894509345,0.604637821269194,0.466073203384926,0.520154533088498,0.475329724742801,0.521222599910554,0.370985432348731,0.575501827081547,0.458925357289482,0.575744914688602
-230,cane,12m,PC,0.518054519655937,0.497964620117302,0.345778254264733,0.533875079562951,0.5492216912644,0.490923949598643,0.385444202555807,0.475463533174272,0.519165185490641,0.486376447846031,0.585922511220066,0.457495556931076,0.518482264553495,0.473974860362604,0.514166411273957,0.378788433414753,0.575583112870308,0.455570149005929,0.568474106964593
-220,cane,12m,PC,0.526117060534807,0.488103210724655,0.335780684536498,0.537536686023587,0.542352304912539,0.491932665052879,0.367697365045183,0.474484436200886,0.522748754018444,0.481365738019092,0.56600371761017,0.449435310178332,0.515229660670679,0.472382515182176,0.504477447154903,0.384677178256365,0.576435446695568,0.450818718223899,0.559706321793574
-210,cane,12m,PC,0.53064303999645,0.476678129225542,0.325471821023925,0.544580101065088,0.534458673965635,0.492628574698656,0.354863393938724,0.474150289560015,0.528130960088168,0.476887522846648,0.545395720980744,0.444633456565013,0.511749157912903,0.470411287468412,0.489580806074884,0.389594909271385,0.577885667515281,0.445275283182794,0.549369291965589
-200,cane,12m,PC,0.532576868741777,0.465552498929041,0.318527823309493,0.554236488620905,0.525797361527361,0.489690157497696,0.347871452049111,0.471777396915961,0.534903822229812,0.476581579220083,0.524127829715526,0.444016527754909,0.505373632515516,0.468170581175342,0.470844524554911,0.394017565719083,0.581159488433866,0.44022473655926,0.539044554801028
-190,cane,12m,PC,0.533181933084078,0.45728188584708,0.31895381538105,0.56479798115386,0.517310445183398,0.484755136713122,0.346986118075722,0.464715020865274,0.541710840223247,0.482589770002177,0.501280490670603,0.449107499071154,0.498453995053733,0.46616464099545,0.451381802730356,0.398006563232468,0.585880384805138,0.438017210342098,0.530588338782094
-180,cane,12m,PC,0.531924018045657,0.453135878819515,0.326333203564483,0.574961222831024,0.512231514816234,0.480540875726238,0.356213099062149,0.45827082640707,0.54956229135702,0.490632935135011,0.477774596168661,0.458924489452142,0.49448489216615,0.466057918408013,0.436024880616132,0.400477408563929,0.589978605483396,0.438286436009991,0.524647941512239
-170,cane,12m,PC,0.529118318987479,0.450537498733605,0.339413555183261,0.58382454025993,0.512867768387966,0.478006335697383,0.36761697670642,0.45406916452932,0.559104639897573,0.495096735223356,0.45510603689972,0.471519385008712,0.493090633416828,0.468288420246416,0.425456645120583,0.401398988170049,0.59246527603727,0.440229202056029,0.523869686657188
-160,cane,12m,PC,0.522735926681223,0.450221334515322,0.356558009714036,0.589784087233087,0.516224882292343,0.475918242230958,0.378735615479508,0.450534051844688,0.567418121998565,0.496535097504305,0.437039778721646,0.484410486728339,0.490917105056269,0.471247124473906,0.419101101909228,0.401701949048809,0.592793962147578,0.442546152963481,0.527651463176104
-150,cane,12m,PC,0.512614315123341,0.451614928629906,0.374501177412575,0.591661851977704,0.52010705901852,0.474382685535174,0.392679864377021,0.448236943766703,0.574455935745173,0.496908493396769,0.426767383561353,0.493995058605676,0.485743354414444,0.472557712586797,0.415180508285713,0.402016727252535,0.591046715161688,0.442598993936248,0.532492455775396
-140,cane,12m,PC,0.500505545015226,0.451468483673698,0.392292937386804,0.589740248028755,0.523685447717426,0.473021734620302,0.411175663717063,0.447123995576462,0.57764067642964,0.49698975589876,0.422779946084256,0.501108001972309,0.476881113377746,0.472230239836983,0.415314794877735,0.404433476582576,0.590601620005234,0.443007446171185,0.535759084458386
-130,cane,12m,PC,0.490406372177461,0.449842158459436,0.406974115726656,0.58508402955555,0.525667844669049,0.471478001532817,0.433184400766703,0.444770461484795,0.574843590147799,0.497036748033222,0.423940861038075,0.506459183796848,0.466292409829949,0.470637600630863,0.416554558774806,0.409455028395924,0.595091479800499,0.447283872544618,0.534552301610748
-120,cane,12m,PC,0.483424030234896,0.448216541609656,0.419214096978186,0.57659796262452,0.527813212528177,0.472345934656462,0.455640160197277,0.442991365560167,0.569431301735296,0.495408814609239,0.4287330195104,0.510007580537932,0.457292418360359,0.468945647557397,0.416689985275898,0.417962078575115,0.60042654613076,0.456405367246394,0.529157115743648
-110,cane,12m,PC,0.479349327366245,0.445524585334961,0.429000481866399,0.566573181691878,0.531262330134627,0.478047092787662,0.478825540804815,0.442306253823388,0.566100368741169,0.491110745452161,0.435217392860871,0.512374438399252,0.449175201753472,0.46893357049979,0.414731676792865,0.428395069845706,0.603385171970826,0.468614327962243,0.519525157427022
-100,cane,12m,PC,0.478709534816568,0.44252254227398,0.434613940630156,0.557400808104228,0.535334831235329,0.484669074878713,0.503553944735581,0.439197300292443,0.565495057997075,0.485915642291782,0.444217401368411,0.514425835571604,0.440903000387403,0.469086170474241,0.415374192512697,0.437146243751341,0.603965577535714,0.483674448255969,0.507857386752536
-90,cane,12m,PC,0.48090978753139,0.438658455822244,0.433642092311871,0.550795891040852,0.538940412031537,0.490470174855065,0.527232168243534,0.434387565714917,0.5661502798103,0.480629285002342,0.451055635082558,0.515866602967716,0.431825300585581,0.467477357703649,0.421672435024223,0.438967359954108,0.60043836257011,0.497454663159305,0.497446236694878
-80,cane,12m,PC,0.484124624453634,0.434790799487676,0.423711704481558,0.550514554965374,0.540025995510892,0.497257053979824,0.545128220047685,0.42819036323228,0.567721742789979,0.476190854650856,0.453101907890426,0.517167900224661,0.4214611869974,0.465744206029277,0.437090780360529,0.43717261719251,0.592142823561676,0.508239389303871,0.489258262686952
-70,cane,12m,PC,0.486768810159404,0.43193020684203,0.40745914950654,0.552962176664067,0.537930439582115,0.505168749365459,0.553581269555554,0.423250711608581,0.566750121172163,0.477551282459274,0.447908303211664,0.517436652056009,0.410292603771155,0.466496282064736,0.455119824370543,0.435180990152122,0.580566329581598,0.514245450893756,0.484978882881287
-60,cane,12m,PC,0.488861873775158,0.4300776050249,0.389985356974879,0.55515626554259,0.53433894711189,0.510245939805627,0.555449870183795,0.420903101473876,0.561905364594859,0.483803967908998,0.441031777330653,0.515713507765176,0.400879549783765,0.468448214988545,0.470922531252521,0.433062992966005,0.568001866088553,0.517083352893895,0.48109621637649
-50,cane,12m,PC,0.492058669823554,0.429269940641773,0.373633282374914,0.559091537763756,0.532381960611461,0.513117610615631,0.556754876082533,0.42176476331173,0.557196144388464,0.491943536092415,0.436585246363756,0.51469595395139,0.395375548998208,0.472490221984001,0.483354791071865,0.430609063613443,0.553657909381121,0.520026365811508,0.476221593758339
-40,cane,12m,PC,0.493846470909282,0.42860568095132,0.361310387148538,0.563664167817347,0.531376645861276,0.512951473558696,0.557173372895406,0.425546765103095,0.554864407921037,0.499863014838715,0.435214781307348,0.513525465871519,0.396207094222525,0.479660841945488,0.491708802371526,0.431199781800977,0.538156334152026,0.522346708158756,0.471066108242717
-30,cane,12m,PC,0.49330068935961,0.428116775004415,0.355477113197015,0.56826003215032,0.530587369690453,0.513447252075316,0.558412419129163,0.431879151632194,0.5521740490428,0.505802573622655,0.438459605218293,0.511031204800117,0.403653911374856,0.488151232174396,0.494908786796723,0.433759465296327,0.521473207930718,0.523111051861942,0.4639831939184
-20,cane,12m,PC,0.492435598479159,0.426085314470831,0.352635445877108,0.572049104890002,0.52838644205768,0.519407224762455,0.557603028190349,0.44032379469318,0.550726199027346,0.508209673413395,0.444656988361634,0.509020868207493,0.416242771496015,0.494634548683056,0.495390852589121,0.437167489784447,0.506481234450442,0.525444436416901,0.454277995649424
-10,cane,12m,PC,0.49290895012989,0.425651411785588,0.35198538780798,0.575634477589671,0.524460399289093,0.529645989595356,0.551785846400016,0.449981840226003,0.551018508360535,0.507159098930023,0.452462580503081,0.506276894194797,0.433089074286964,0.497315335372815,0.493171837600548,0.441967803103404,0.492781465202735,0.529126125011784,0.44570575056502
0,cane,12m,PC,0.494044304729414,0.428930452374297,0.354319316466651,0.579333489885879,0.520810937549396,0.542998981319385,0.547206245678396,0.457131193272978,0.549892262313039,0.503806305052123,0.461662024576569,0.502157086485191,0.452631610943911,0.498059969673679,0.48708264868301,0.447930796652699,0.481894255247082,0.532581501412201,0.440140745753899
10,cane,12m,PC,0.494987979962029,0.434584286746188,0.357045030828846,0.583398922645921,0.515993734670641,0.555837229020064,0.545870162991769,0.46251022623231,0.545178868404354,0.499775021687681,0.473460575712615,0.497160148122555,0.473569447744129,0.49740285863141,0.478631242210461,0.456733461067762,0.471739367059408,0.533438289349501,0.43912235871293
20,cane,12m,PC,0.493524840904617,0.439739158774642,0.360205423446576,0.589147908295109,0.509279956952874,0.565143006552547,0.545120295419812,0.46816970762013,0.53421508213145,0.494100868560928,0.486763525192908,0.491509516637947,0.492922397136457,0.495045240628313,0.4728531299663,0.46732688940239,0.464322285982778,0.532776999919725,0.441229757349495
30,cane,12m,PC,0.487811611788789,0.443263602599966,0.363326203861781,0.592543737166889,0.503062267481377,0.569361660212343,0.543946658119844,0.473856075024908,0.52185384609286,0.485479800294134,0.498831922697996,0.486661560321453,0.509844298286278,0.491443200545824,0.469439074190717,0.475165846120675,0.459504997009538,0.531951440700625,0.441376279576926
40,cane,12m,PC,0.479613370917697,0.44319263051161,0.365989980147616,0.59246007189293,0.498721959135985,0.570926611984138,0.540001067024043,0.477190834017186,0.512279900853323,0.477962162047384,0.507259695609274,0.484170502180945,0.523166075142602,0.487683989682336,0.467878444425759,0.477444450492814,0.457670851585715,0.5292979805837,0.437709800259984
50,cane,12m,PC,0.469881192079177,0.439834839890411,0.36732427397429,0.591852778546311,0.497197643271066,0.568020210552108,0.535350065840838,0.477188788953061,0.502122794087748,0.474489539468734,0.511668501418316,0.483353214500388,0.534769883219006,0.481644305947252,0.468192167157635,0.476452421318469,0.458217541753171,0.523083143235379,0.434737120359773
60,cane,12m,PC,0.459997214974596,0.432944716594355,0.365848735522713,0.593108003047496,0.497994294249723,0.558789571408395,0.534485739677591,0.473141146597535,0.489121948433157,0.472750282519936,0.513750269394814,0.483362240704188,0.54328556107423,0.473340324886918,0.466699268504559,0.47422277439371,0.460663517332544,0.515880085228678,0.435121777770018
70,cane,12m,PC,0.451205102256355,0.424893358611407,0.364981933132969,0.593847028753731,0.500928004730823,0.545062634153375,0.540119414083342,0.468017548392973,0.477215320674842,0.473104484465553,0.515520257040839,0.486259264522124,0.550354744041306,0.465468274496263,0.463497823785822,0.468379510315404,0.465946132544054,0.510830594757344,0.435527369914529
80,cane,12m,PC,0.44227105156696,0.418510059353605,0.367380982686007,0.589233257940229,0.506710746281156,0.527305737921748,0.549568328847142,0.464124783573135,0.469976442919039,0.477962748290145,0.518363083315734,0.493874078987382,0.552715363108805,0.459983205644841,0.462023898697565,0.461356072689269,0.471872779152939,0.507065671970029,0.43461529285794
90,cane,12m,PC,0.434470031267708,0.41725571094448,0.372148305734516,0.580079836673237,0.513678854611969,0.507451632671233,0.558749327551586,0.462704776093948,0.468043294297321,0.48589125393112,0.525611329658433,0.503885663546114,0.550067829719139,0.455240632389624,0.461698165435242,0.457066526115329,0.478904138428755,0.504403613493122,0.434718160470832
100,cane,12m,PC,0.430831034287015,0.420413768302397,0.376684772405109,0.572371295757903,0.519268967397398,0.488907531048578,0.569646673352643,0.464735226259945,0.471472259985044,0.493878985394612,0.538555625406575,0.513993838150149,0.548355465691201,0.448551186756786,0.46176109065759,0.459497854276956,0.488383049034444,0.501408497865036,0.438309451935732
110,cane,12m,PC,0.428747764251183,0.428058339257387,0.381711732241287,0.568172035681746,0.520603780769044,0.473891019679876,0.58119389624875,0.469707075841003,0.474585001028055,0.499890542736516,0.552553632549015,0.520499035572469,0.548578496474044,0.440920599195178,0.463506545522606,0.467272835631171,0.498664891632692,0.496434846164831,0.446204367818871
120,cane,12m,PC,0.427275161668638,0.436122961027708,0.38797288976317,0.567316860436715,0.517171115440993,0.463292742491983,0.59239860178377,0.476049826357994,0.474894119411681,0.506128588552745,0.55936729952286,0.522403784165173,0.548542943243286,0.435260292297084,0.469200838537879,0.477161601113317,0.509449606410513,0.488083666886107,0.456475725568246
130,cane,12m,PC,0.427221774013569,0.439325961811051,0.394533657853561,0.56974664290046,0.512271125513114,0.456304888905832,0.601094115477839,0.484475936342472,0.472596402809653,0.512976595180069,0.557106488245866,0.521285682407032,0.546713131763413,0.436468346459705,0.476170493300992,0.483864435618018,0.52054759198755,0.481387667235112,0.468010912598366
140,cane,12m,PC,0.42574093356385,0.439223117880225,0.3979044453388,0.576303539113867,0.50905277583012,0.452960734813678,0.605586280716713,0.492597905242752,0.470659414920582,0.518452468070506,0.546217114745008,0.517527464181923,0.543087860601326,0.443878610950749,0.483088597417366,0.485680016629405,0.527003825120601,0.480193488810795,0.476073991254274
150,cane,12m,PC,0.422219450267944,0.436542026970369,0.400294014021856,0.585848650383762,0.508072663162904,0.450425755716551,0.606904082632653,0.497725609702744,0.470634645516847,0.520482386392357,0.531713942935934,0.511621304206615,0.53841255966464,0.4546793201977,0.489896704643937,0.482842481333516,0.530054426098282,0.483264506695541,0.479482915126099
160,cane,12m,PC,0.418996763449996,0.430638402938525,0.40287230206984,0.595713090590899,0.508479694022855,0.448605670803278,0.603040066475769,0.499445511610685,0.471764283480266,0.521494211202047,0.517837599232059,0.504719000378816,0.532180862417404,0.464798396204673,0.494968123335886,0.472442732947743,0.53398389507828,0.489370002317106,0.480633509733321
170,cane,12m,PC,0.419652654095908,0.424035948263187,0.403710325831045,0.606125408927641,0.507355453222944,0.444217582315404,0.594646662403946,0.49721846340906,0.471579921011629,0.520227012831317,0.505766500656793,0.497565119668673,0.523966343454176,0.471393058029919,0.496209605197356,0.459937094716089,0.54286175000984,0.498735224825937,0.479085178463276
180,cane,12m,PC,0.422325073873086,0.419549315986224,0.403577800150099,0.616810252011991,0.505197112433981,0.439256069978038,0.586257748321347,0.492568491632363,0.469797438893408,0.51699661543855,0.491805037656509,0.492493266648998,0.514708758032155,0.474750874564044,0.49603885212204,0.452999870157364,0.55380808196014,0.508320043854819,0.476505079388732
190,cane,12m,PC,0.426083900877367,0.417084690749094,0.399337226742738,0.625878035938132,0.500864631699511,0.435914357139847,0.578887364527987,0.487381476792831,0.468224396641854,0.512205835290352,0.477720500118594,0.489023456522174,0.508338855234045,0.478146515454897,0.494988411406147,0.452004368211823,0.565952991171665,0.514438352589547,0.47692038133908
200,cane,12m,PC,0.429871812227176,0.418426267499657,0.39038146835196,0.630097381741015,0.496453388701969,0.43469288411434,0.572683043284671,0.481916305954961,0.464370919960676,0.506865419064414,0.465643332752911,0.486433052852149,0.505352657184929,0.48212539138704,0.492362788930079,0.454724364881929,0.576535893795914,0.515236299867676,0.480892602181054
210,cane,12m,PC,0.433995595287512,0.424203512498539,0.379317197736874,0.631460493990148,0.492047141877548,0.432981679113496,0.563831556829298,0.476293613709051,0.45783199202881,0.500689589619498,0.453947262071944,0.484732216202412,0.503356320849503,0.486324576114906,0.489361779106654,0.455584810334635,0.584480748282889,0.513232838452594,0.485242224931816
220,cane,12m,PC,0.438162387091508,0.43206703863994,0.36959635112479,0.627849766144694,0.488212651155852,0.432367152140154,0.553226065052903,0.471455597512426,0.449719668857526,0.494438720479202,0.444935258206592,0.483745406739827,0.499352558746175,0.490677735849428,0.485984381933403,0.454297172263207,0.591180052104317,0.511294583693811,0.487739194352755
230,cane,12m,PC,0.440753865934226,0.440528105965177,0.360252325095133,0.62045882919704,0.485754432347981,0.432065296231616,0.540348888152876,0.466570148064273,0.439396124181996,0.489459117785969,0.44270692952212,0.483662311524147,0.494341058158541,0.495403060218717,0.483356661726881,0.451474679813668,0.597182882906953,0.511060340812217,0.488343797336223
240,cane,12m,PC,0.441105564895587,0.447114950198099,0.351184005232839,0.6120755797841,0.485139334868291,0.432590052980537,0.528188064573295,0.462388602869817,0.428515168204016,0.486924150219245,0.448080150903567,0.482861674005458,0.490520888173258,0.501478797288923,0.480336999021003,0.445807706413359,0.600482743975915,0.511563264230395,0.487727056857995
250,cane,12m,PC,0.441256395775948,0.451262629363502,0.34798621715464,0.604652886627474,0.49124782701418,0.434789689052187,0.517873035736629,0.458576636378296,0.422131601416249,0.48558395771339,0.454777324630912,0.482487060520163,0.489311726343463,0.506106339893659,0.475121380505681,0.438483122180295,0.601083640928908,0.514940750546577,0.489235642751843
260,cane,12m,PC,0.441275665569623,0.452369916525665,0.357664739532459,0.596447965123754,0.501834520748536,0.43998093722982,0.509897845593246,0.454772979128438,0.420517853466172,0.486034988088417,0.462078882845175,0.484099845616874,0.490439612649325,0.508392788177474,0.470090311416991,0.430124631249876,0.602127913487895,0.519632314136329,0.491471508444963
270,cane,12m,PC,0.439162681282581,0.451888773402368,0.369271919781859,0.588166648860316,0.51254816738668,0.447255918624678,0.504088759888488,0.45037595301058,0.426408035025286,0.487639490876429,0.469355073794501,0.487341746089293,0.49282369910009,0.509219658441405,0.468155723244347,0.42092554776327,0.599735895103585,0.524046148859352,0.491983105152808
280,cane,12m,PC,0.433748315450013,0.449857762029385,0.381033611877884,0.580080374787052,0.520932752905376,0.454373602214076,0.500296038169548,0.446256474368504,0.440937016253274,0.489870365259732,0.476569069309321,0.489287633600181,0.494108611711888,0.508666642911547,0.466999660968833,0.415328694771425,0.591335405694488,0.527283390707185,0.490947502070822
290,cane,12m,PC,0.426673341154233,0.447470351170156,0.385576426968476,0.571014767277964,0.526398717802226,0.464548218801423,0.499972836214558,0.44428241381821,0.462710130406298,0.494330403033215,0.484436431289615,0.491360142125213,0.4940247602575,0.507789222139519,0.463354864547684,0.416993045092932,0.578101966772248,0.529383986143895,0.489239870559195
300,cane,12m,PC,0.42208160192232,0.44563806563933,0.385427207376879,0.560835267945594,0.528259344433515,0.476485686360185,0.502299503435416,0.44406503933786,0.489387815067438,0.501029312339713,0.492120650860001,0.494773685140238,0.494359695499875,0.509997595824132,0.456540908259059,0.422089470724195,0.560711185863262,0.53037975614275,0.486807385446797
310,cane,12m,PC,0.42109574215269,0.441595372430509,0.387454329619815,0.55250687187984,0.527672215190256,0.486769588066971,0.511886574758752,0.443520611792717,0.518991552886877,0.509905402200329,0.497633394216715,0.499579243956841,0.496295883240792,0.513848773449764,0.447995160711722,0.429492983642008,0.540909993820952,0.531154472404678,0.484204394190412
320,cane,12m,PC,0.423732222767506,0.436179833843732,0.393231937303647,0.55031225175123,0.523807165262555,0.495885632872786,0.522582259028218,0.445759725902309,0.543144565054088,0.519458058032088,0.501910735405623,0.505804745362745,0.498728909996904,0.519228248657758,0.440376916531272,0.437845798402264,0.522721211987029,0.530579831522402,0.481767203390685
330,cane,12m,PC,0.429852353233316,0.430639657524498,0.405379560399759,0.5516639721189,0.516719799326714,0.499375964616029,0.530262348116039,0.447771971894943,0.557723181015877,0.530503507929764,0.506642536370482,0.513861942468953,0.498455266435884,0.523903526549228,0.433465447986276,0.445955432606323,0.508475983014583,0.52892524507794,0.477705044829576
340,cane,12m,PC,0.437584559925973,0.427011208051504,0.421604333868753,0.552934631560857,0.513403173176218,0.499486568593987,0.533824924268752,0.446522543316785,0.567064489315433,0.542077809901,0.512529773416918,0.520781349289324,0.494147131259136,0.525983720223986,0.426811798889296,0.452259078994494,0.500045082381913,0.525529746566249,0.471715615466634
350,cane,12m,PC,0.442766855017805,0.427609853349365,0.437300855852436,0.551012699873097,0.515056909711095,0.500243733788704,0.532071548363186,0.442465522749823,0.572902149968157,0.553391903628638,0.522421276628329,0.525973876488057,0.485016199983285,0.524485631538658,0.421433863679717,0.453534043444225,0.496918534879641,0.520925018389022,0.468074127039293
360,cane,12m,PC,0.445761091744479,0.430499643365451,0.455083919756727,0.543857403249279,0.520242728726991,0.501118667395741,0.523958457259876,0.438263083362655,0.575778724566328,0.562612874413708,0.531786810626467,0.529413238113564,0.471163144122688,0.520262698309091,0.419021608833171,0.449835818053886,0.497306246947996,0.514421059922093,0.468991032714144
370,cane,12m,PC,0.449464143604107,0.433393285870346,0.472536635682054,0.533053464645414,0.526759137147885,0.49845494244865,0.514049322936594,0.437101314850519,0.575564642008043,0.568228696106695,0.536008808044788,0.52969512443774,0.455913155625009,0.5141573431468,0.418490492414237,0.438701841750428,0.498495302806728,0.506646297944405,0.474035619800653
380,cane,12m,PC,0.455998620433708,0.436007024106566,0.487394089879808,0.52049707639546,0.533930477373893,0.492168161576279,0.501969182988538,0.438565275362379,0.571179856581305,0.570272899839523,0.535251227145696,0.526981545944495,0.441238483086647,0.508520352075694,0.418649142496485,0.42343803236124,0.500566672783091,0.50044947517724,0.483886948367352
390,cane,12m,PC,0.464955276057186,0.437527409881028,0.496998909774765,0.50600304172996,0.540644671528414,0.483532081574114,0.48664765353123,0.442025609795113,0.561677848863937,0.569482934223192,0.53196000230028,0.521695195565238,0.428761761978492,0.504354642073047,0.419798214958371,0.410506543559959,0.500827605034455,0.496304903926342,0.494945258934084
400,cane,12m,PC,0.472321044543412,0.43859566711042,0.501242493104382,0.493803730628386,0.544491222875795,0.471466919351447,0.467850328165698,0.447645594577919,0.547165748047761,0.567175511074469,0.52336402847168,0.516209142639279,0.419656877940156,0.502609553138959,0.423898492265236,0.404174474540453,0.498550857312009,0.495411509385043,0.505042495168112
410,cane,12m,PC,0.477214062117214,0.437582244329126,0.505473034474091,0.48568449920745,0.543266705788481,0.459805331606549,0.449656611124504,0.454109650012158,0.527746687365518,0.563823066732716,0.511998894904944,0.510921924699737,0.414438521468823,0.501715808568317,0.433038651703462,0.404834228368962,0.494230857947785,0.496277041200872,0.513849372655576
420,cane,12m,PC,0.481251830167394,0.43693687541074,0.508412689360668,0.482035659996014,0.53660197232847,0.451613822698392,0.434256145130286,0.459623745776537,0.508131795534485,0.559468739419791,0.499868829309199,0.505029198471925,0.409988399833762,0.501589053139946,0.447508524255287,0.412352295077683,0.4860767819253,0.498937114866307,0.520856659521607
430,cane,12m,PC,0.484878229981911,0.436985459961177,0.506883057965247,0.481512031568503,0.526085878199331,0.446672440120829,0.424495337815568,0.462943351154651,0.48683530880915,0.551837113144972,0.484441358978609,0.499285022800518,0.403218282830777,0.501381160543836,0.465762552318743,0.422530079618844,0.477969538023945,0.504112532750309,0.527138170690976
440,cane,12m,PC,0.49155556906888,0.440534220704583,0.502340173292305,0.4818092115416,0.513754547122936,0.444812894863248,0.41658331446043,0.463930156566272,0.463014697304475,0.543023003492747,0.46747068105468,0.495283465358041,0.392342802490811,0.503862795856644,0.485154087318654,0.431244403296217,0.473341934908642,0.511148932010152,0.536112941472718
450,cane,12m,PC,0.502644928688885,0.444889180333207,0.490626154222403,0.481824070364563,0.503297017860233,0.444046932737239,0.406943136424686,0.465595853003187,0.43709351981903,0.536562468395071,0.452216325797043,0.493128231268292,0.377833651498359,0.509741116717217,0.500724207523402,0.434014172925728,0.470284726953251,0.518097491938983,0.547186120025036
460,cane,12m,PC,0.514834550516198,0.448768672826324,0.47288552145842,0.48212498848687,0.498328921661082,0.442420087137864,0.397264996024256,0.468258080293477,0.415704404280055,0.533349931202087,0.436806885575972,0.49181145181461,0.362815980660413,0.515672142763461,0.511002897798766,0.433679445331174,0.46429436141036,0.523112442129033,0.55941692254398
470,cane,12m,PC,0.525313921998726,0.450474687196456,0.454682474968724,0.481644669075697,0.498424214006648,0.439307163011552,0.388648540285903,0.470536723191197,0.404630702361917,0.530972828613634,0.417438049943012,0.490822769550598,0.35003004433688,0.520735093213548,0.515766700261878,0.433862320912573,0.454979100815065,0.528386916009287,0.571636047889593
480,cane,12m,PC,0.532140676284143,0.450603308564194,0.440461800257662,0.48077788768531,0.498785487906843,0.436722805639795,0.382951017651558,0.47283431373398,0.402064607628415,0.527527432192049,0.39630689907113,0.488229669714354,0.345352469980678,0.524579423295244,0.515470470237394,0.432660601341977,0.444828106174688,0.533722989431698,0.578627619946592
490,cane,12m,PC,0.534928209705342,0.449409290179817,0.432651349830318,0.482632845467078,0.49717350131105,0.435615533784604,0.384799399343692,0.476324647942129,0.4060389098151,0.523570592238869,0.378100042549551,0.484330269154398,0.346877252556211,0.527419915687895,0.513246505053944,0.43261617089652,0.432680901594896,0.53797574985614,0.58084210733717
500,cane,12m,PC,0.534252736551641,0.445782904437635,0.429501978151215,0.489459965552967,0.495545413069987,0.435285813493504,0.391813332205318,0.47751382935896,0.41488629554517,0.518332714810225,0.361301599860008,0.481023387698126,0.352533977133463,0.529442705502833,0.511477814877049,0.435556782851427,0.419761908478328,0.540143139435092,0.576808422528908
510,cane,12m,PC,0.530218817563184,0.442767007986337,0.430261298440889,0.496878420556092,0.496379799548869,0.43954785286448,0.40307909301064,0.476617834278854,0.425969999471796,0.511378756796952,0.345724214858283,0.479426624263954,0.36066838357765,0.530017182520483,0.51052398542689,0.446204297316461,0.410723915373984,0.540921379278832,0.568957293643434
520,cane,12m,PC,0.52478067245514,0.440798958914421,0.433063333547582,0.504660654716877,0.499324385189782,0.444436176539934,0.419027833201686,0.473164839615726,0.435189943085803,0.504976160331502,0.334610063546772,0.479071797307084,0.369860254996507,0.529431898699836,0.509414791910213,0.461311581542879,0.406289382908798,0.539961442161628,0.559393367245202
530,cane,12m,PC,0.519842133812678,0.43904236936769,0.433298842956274,0.512090382669423,0.503132037910145,0.446300396746694,0.436252326721212,0.469225742301441,0.439770880372367,0.499941842035001,0.330530877376846,0.480880947010219,0.37863199383812,0.528603696768202,0.507925295920332,0.480137798017539,0.407320256718003,0.538288078612857,0.548993292837333
540,cane,12m,PC,0.515454612692974,0.435861196245463,0.430510330005805,0.516275997796956,0.507547962607878,0.444656187828959,0.451298448304656,0.468564736842743,0.440518110832552,0.498395584758323,0.332257259620812,0.484599110255892,0.385971216115166,0.527083003905638,0.507315137956332,0.498273514105601,0.414106270172053,0.537965367858892,0.535065438636881
550,cane,12m,PC,0.510628666336254,0.434504028582626,0.425436809922751,0.518649747856514,0.513135720376344,0.44124328980148,0.462454980309858,0.473061639711049,0.435972363378575,0.501122716169589,0.339820473269787,0.488335081652538,0.38849928471455,0.524425079917772,0.50671912606682,0.51481121052285,0.424123281031037,0.538066488374249,0.516775466975329
560,cane,12m,PC,0.504732122911109,0.433769431034712,0.419956943092712,0.51826718401039,0.518136221031809,0.434411539358204,0.469675546275549,0.481795813032234,0.429090569896641,0.507032388434348,0.353528408176884,0.489971739597018,0.388543554118674,0.521705359115268,0.505593124227953,0.528914653039095,0.434859986804843,0.53691693244808,0.497976354760824
570,cane,12m,PC,0.499187702923152,0.432935442625824,0.417082412960288,0.516900428458227,0.519922678335307,0.427056580361032,0.474176938670802,0.491500106146625,0.42368179113183,0.513263480836743,0.366641259132167,0.490396403299218,0.3915808439026,0.520482262262701,0.506590400572313,0.536362088420899,0.444549882330595,0.536057287862693,0.479000374804076
580,cane,12m,PC,0.494563999971155,0.430942230315945,0.416743105281223,0.51632746247845,0.517564422001335,0.424064463436657,0.477184280064722,0.499885723843615,0.422950115001846,0.520280267187701,0.374681684161191,0.488657015268295,0.398304834726781,0.521793266362202,0.507742660466799,0.538828649515885,0.44807152826727,0.535487201289315,0.459571372059147
590,cane,12m,PC,0.490369108432362,0.427082454539672,0.419847683004924,0.517697714873304,0.512922297957668,0.425820851641691,0.476706472317114,0.505909587825604,0.425958704447984,0.527713288504498,0.37703126161637,0.483844459999685,0.407964452608304,0.523448495117187,0.505628439280435,0.540315584319241,0.448418282719423,0.532744033211335,0.439754881471456
600,cane,12m,PC,0.485024764197816,0.423150943175936,0.425630711435068,0.519676933956849,0.508743846939682,0.428665151230073,0.476316878035845,0.508081048710396,0.429811823232581,0.535458179799525,0.379104874877054,0.476587950376274,0.419530866062572,0.523721875488073,0.500912335629816,0.542708666439523,0.448556900199419,0.526706149398723,0.419195759218437
610,cane,12m,PC,0.480355359301661,0.419047996582796,0.432691643704749,0.522610301911692,0.506699884625339,0.432349364297805,0.472336974726743,0.50550110830967,0.431433526066971,0.542757354212317,0.38332988774796,0.469525742951062,0.431061288517314,0.521849319205626,0.495568331361111,0.547217741458635,0.448920259385124,0.518189246043525,0.402329948348932
620,cane,12m,PC,0.477713701217674,0.415780503061672,0.44274288270911,0.528060205605547,0.50579349003694,0.436094401000599,0.464071050705578,0.497829081630286,0.429831248100921,0.547753362666708,0.387959076714259,0.465001369343125,0.441134555687572,0.518590821695881,0.488701701228361,0.553137145578303,0.450514885780428,0.511003814231469,0.387882751149901
630,cane,12m,PC,0.475401566408388,0.412258862875525,0.451512546611528,0.536407278563708,0.508152804507265,0.44036370576728,0.454490634110533,0.487102279493337,0.424993363161129,0.55133239331513,0.396811960418498,0.46441041941185,0.449897302243101,0.514800583878182,0.483234652548479,0.555938369105886,0.454772717955417,0.506678493300066,0.377847410015772
640,cane,12m,PC,0.475644196914128,0.410675499572733,0.458859166193649,0.543725002942684,0.513822572823368,0.446170707861598,0.443950270728097,0.475751867642762,0.418424724675112,0.552852217118237,0.410515139371155,0.465634996334215,0.458117523448195,0.510502115446457,0.479778424233338,0.55305013687297,0.461269151052231,0.502546385196792,0.373421725627783
650,cane,12m,PC,0.477309041200564,0.408686866465831,0.463996976449372,0.550310410053427,0.520214734843088,0.452646098975414,0.437862122315157,0.464591464250668,0.412683566247479,0.554709529682444,0.428499432759066,0.466485889942283,0.464255522540058,0.507170814121148,0.479223709786423,0.546603701212848,0.469066210973276,0.499111741567746,0.374288245880127
660,cane,12m,PC,0.480587135038061,0.405113808572724,0.469788178703204,0.557985667968944,0.525502540890507,0.455137066288554,0.436665576644751,0.454761347656013,0.413211659835898,0.556891750919473,0.44926813101349,0.465665601314842,0.468056742021094,0.505814423345558,0.483045119719762,0.538630493039869,0.477162110297338,0.496911308782811,0.378275533354563
670,cane,12m,PC,0.484969959871431,0.402301656316968,0.475441512612488,0.567856518167858,0.527595894804291,0.451249440622131,0.434944438763825,0.447738812450733,0.422400095004911,0.561618528958161,0.469492289989385,0.462486657074126,0.472569085776133,0.507648542864967,0.490957906649441,0.531192569821996,0.481612671681315,0.495065697481964,0.384522480329435
680,cane,12m,PC,0.486051851601885,0.403738635648032,0.481386984289211,0.579672652825782,0.52715160496333,0.444218977427553,0.439068932523537,0.443466950122419,0.440111084283512,0.570058053469082,0.484291192948692,0.459484467809867,0.477600321117947,0.512869198417999,0.502128359344717,0.527661695304384,0.48485953360452,0.493278813080239,0.394505299125674
690,cane,12m,PC,0.482122743061219,0.407796828498472,0.486112953627342,0.594142685945969,0.526319500530215,0.439510511249752,0.451311432276242,0.442095275461235,0.463959826153281,0.581100873459779,0.491046784013169,0.45867842040747,0.482151016418685,0.521220638332229,0.514543753013277,0.527152168150471,0.49043774903362,0.492661152176963,0.408058921636732
700,cane,12m,PC,0.47558485286018,0.415794234445641,0.489696221567772,0.60970304752728,0.522762036759443,0.436528001213038,0.464770321497274,0.442487593836987,0.492126649584579,0.593295059833118,0.4914363569191,0.458734881281666,0.485933612030333,0.530907673207487,0.524846966152783,0.528089755479363,0.499329367424501,0.493121377929654,0.421544580615002
710,cane,12m,PC,0.469028013110742,0.428552398805493,0.492962109734782,0.626160727426958,0.514950298425258,0.434055541363207,0.476314048728952,0.441651387189459,0.520751689082295,0.603132258923596,0.487916546645256,0.457957908155554,0.48721003961773,0.540536958052342,0.531085479692193,0.529647648591759,0.508060970701813,0.493998704964144,0.43746808753024
720,cane,12m,PC,0.463368745770905,0.444902332924079,0.50001661268632,0.640672304626379,0.507090835964144,0.431579803858694,0.482783164077326,0.438892947934542,0.542695513280807,0.606892128915788,0.482715940409245,0.458311082860159,0.487623950935807,0.549432338126041,0.536026291696897,0.531942433445517,0.515181185203304,0.494562532633247,0.454836611923848
730,cane,12m,PC,0.458017467238072,0.460487109138096,0.510377655365524,0.650535852237416,0.50270998497426,0.429168231543835,0.486148328499707,0.433698784666781,0.555427586896903,0.603772870309264,0.476549410046328,0.459634236895633,0.487052733853842,0.558618807106003,0.540293804618997,0.538355023511579,0.520061005742617,0.492318139047751,0.46914771657419
740,cane,12m,PC,0.452951597607301,0.47281236445887,0.519440300753009,0.656464986691941,0.503826061120088,0.429171630304774,0.493121981216201,0.427200047689925,0.561848687582441,0.595705626912284,0.462481161584745,0.460870610146358,0.485973200604743,0.567982052338767,0.542325429457668,0.545826480419858,0.525075461393451,0.487806818529125,0.478498900600556
750,cane,12m,PC,0.44979492794184,0.485038736505515,0.525697933558481,0.658240057895201,0.511484172458253,0.432144534401746,0.503213661016696,0.420798688945774,0.562810097881196,0.586069402170555,0.443972257523973,0.462080588198346,0.484831180084513,0.57625783586331,0.540865496606275,0.552956113709107,0.531635905884033,0.485630679202823,0.483329635607601
760,cane,12m,PC,0.449246095706362,0.497527392941938,0.532215902743343,0.655415303065911,0.523631143563964,0.43863872602972,0.514453770346959,0.418071234687926,0.558990003647004,0.57880034170471,0.422997840433808,0.462760032062708,0.482042795944024,0.58142889526503,0.53654047777651,0.55658874224214,0.536850214925839,0.48695275884689,0.485773889088812
770,cane,12m,PC,0.450778572354685,0.508065583442942,0.539941903133293,0.649177380694953,0.53707246582693,0.447354079798638,0.527715597323547,0.421883031210493,0.552805284858921,0.574720736349663,0.404371066797466,0.463346092184976,0.478399525689863,0.583843616151084,0.530878701910815,0.555227500558102,0.537990124304135,0.48791427005147,0.488855220470987
780,cane,12m,PC,0.452356074961521,0.515981597981185,0.550225256620542,0.64140263421567,0.548866185173365,0.459469618745308,0.543199885298073,0.431918940267526,0.547534385322658,0.572835959935554,0.39364690134811,0.465480732560228,0.475082823050689,0.582470643489948,0.524088927433183,0.551234410562354,0.533025971701549,0.484128830730321,0.48899556955706
790,cane,12m,PC,0.455036933314574,0.518283568785684,0.563203577618136,0.632198227219882,0.556585649602461,0.473397717226657,0.557943891332714,0.44625576564341,0.54405071804527,0.570368751727026,0.39122369348517,0.469494210151773,0.476382781325293,0.578429019732122,0.518601321533718,0.548573388157353,0.525201682468938,0.475306857400923,0.487188511751357
800,cane,12m,PC,0.459460790855387,0.513491628921135,0.575524532869853,0.621091653522519,0.557757627457481,0.483545194358532,0.569985905114635,0.462138019422497,0.540830179882495,0.566799328523556,0.392923466400081,0.472490224262848,0.482878620362456,0.575390606996874,0.515277906893892,0.546929666428533,0.516539097497202,0.462413071629665,0.484437056426624
810,cane,12m,PC,0.465228539974064,0.505941491480301,0.586638381636072,0.610415588851491,0.553894257003585,0.489796146580151,0.577929507660596,0.475915155729341,0.537614289677786,0.561918754105177,0.393928153035357,0.474666255774233,0.491432148838214,0.574158008370134,0.512154918760436,0.542758907423971,0.507315299472476,0.448463040897146,0.484374227602469
820,cane,12m,PC,0.471310121514241,0.498802696595887,0.596265668678587,0.600058822919142,0.549709702244061,0.49286065615777,0.584688252119302,0.487965440268636,0.537527919165347,0.556784359776101,0.393007453306868,0.476151974179668,0.499248215414795,0.572973409342399,0.508611254268444,0.533675552887316,0.4959787994755,0.434792770071263,0.487741761356857
830,cane,12m,PC,0.478668320195909,0.494869585048905,0.605189017201152,0.588493041710015,0.547567112639579,0.49425943963247,0.589272607549093,0.50223886474904,0.541594429045357,0.553254151401736,0.390888721142027,0.476313356673739,0.503141443405052,0.571085838846125,0.505818146287693,0.522791680716104,0.485331390286518,0.424864241796632,0.491481578273798
840,cane,12m,PC,0.485597672773985,0.495188484009274,0.613828532341159,0.579605849189412,0.548207748138875,0.49373771248557,0.591662882060401,0.517101703259058,0.543575320486973,0.550557073635305,0.387049493424428,0.475893279647067,0.502604214405228,0.569446692941234,0.505836341607276,0.514363530372725,0.478271789613877,0.420576298022587,0.493773068646899
850,cane,12m,PC,0.491388733706778,0.500342445241833,0.621193329006345,0.573177335360268,0.551060826390152,0.492712484717372,0.592800062572072,0.529638585064821,0.543574036243096,0.548134937368052,0.383274204043596,0.475528515417128,0.500349837151818,0.566745448596633,0.508879582495817,0.509208686842852,0.471709260053528,0.421725449603006,0.494676935416698
860,cane,12m,PC,0.495262903446188,0.507986621174189,0.627619545025797,0.566859081844798,0.556718639677365,0.49424307660728,0.592584024302583,0.537709148302688,0.540352236746987,0.546032052419022,0.381192267653398,0.47559050242249,0.496272785629633,0.561919839338047,0.512558599196579,0.505846645282917,0.466447685712501,0.424955905570039,0.49317319772696
870,cane,12m,PC,0.49800551854173,0.515258711892379,0.631022013484265,0.558239428535352,0.562559579948933,0.499380992053641,0.589326245920788,0.542216024904719,0.534822608464387,0.543966101816141,0.383143797535603,0.476180261600219,0.488737323623615,0.555375133793441,0.513357660995698,0.503299536617512,0.463218099281738,0.429306274350053,0.491423655685157
880,cane,12m,PC,0.502027231351017,0.521649351209043,0.633617119489964,0.549296778448245,0.564008839561268,0.508032986963416,0.586302118861322,0.542146045710132,0.526759233188829,0.538389250361217,0.390841006176016,0.477407561753686,0.478763596640793,0.546301170921612,0.512157303021569,0.503586003371417,0.460366807464355,0.438152209136612,0.492000755231349
890,cane,12m,PC,0.505173244583512,0.527303134585687,0.636479131501878,0.542225423504161,0.561146333493662,0.519109631973515,0.584932881829813,0.539348515809723,0.519594781045805,0.532008721387203,0.405024058027452,0.478281758895121,0.469353044809783,0.535553452136491,0.51204384394554,0.506816891720934,0.458248594532826,0.449562215929786,0.494830732573008
900,cane,12m,PC,0.504718694345017,0.532234283108271,0.637551661101764,0.540589977241657,0.555966556294627,0.534767383979746,0.58392642492691,0.540330427805715,0.515931565274785,0.526237348617296,0.419457077750879,0.476744674328519,0.462012443501661,0.524426808799412,0.515958197790908,0.512110402251776,0.460507611780531,0.461397910101751,0.499246935661518
910,cane,12m,PC,0.501039048257476,0.536109772894083,0.637363302370314,0.543782579847178,0.551125779381493,0.555819210829237,0.586277000858907,0.544919810917518,0.517261009672136,0.520571614291327,0.43412394554602,0.473457583012975,0.457215149899115,0.51212225908329,0.521602470145721,0.516696998415791,0.468501338907206,0.472131128044003,0.498963770887368
920,cane,12m,PC,0.495371018681694,0.538819021927511,0.633675644561216,0.549402180725234,0.547129765290707,0.579453301597943,0.590808944250289,0.55171188143729,0.521165339766911,0.515436870402161,0.449003049627036,0.470019794406356,0.454695959354382,0.49990994646257,0.526419113244064,0.520290353336768,0.473432553816679,0.482376684860095,0.491344665451108
930,cane,12m,PC,0.487637748456208,0.541990691664685,0.627852702507106,0.556079779698943,0.545314331329679,0.60292230264843,0.592119012931609,0.558341889294262,0.526964868913014,0.511726772423407,0.460399301488348,0.466882718361929,0.454281576911977,0.489017367252417,0.529839187238575,0.525140752562204,0.476651219582146,0.492405478983804,0.482048576619976
940,cane,12m,PC,0.479023348046056,0.544982017910978,0.622994809884797,0.564655148034611,0.546625994116676,0.623925026192976,0.590600535462634,0.563910700747075,0.535464712674459,0.508854145349504,0.468517752680983,0.464355743058223,0.453953988220079,0.477518204225576,0.531895294751549,0.52719102765334,0.477741008760071,0.501357025324322,0.474837493534357
950,cane,12m,PC,0.469278351976612,0.547077688157452,0.621214821053838,0.575329587142896,0.548610438864647,0.639337624368905,0.586644183240919,0.569348108839938,0.545172433458144,0.505445233433624,0.475374864700595,0.461229384726144,0.451517254828237,0.466995959818444,0.529603166827161,0.528610813520833,0.477453758388797,0.508886859320876,0.469985406776055
960,cane,12m,PC,0.458934200382923,0.547565183312281,0.622421087288968,0.587275833432251,0.551364549063359,0.650298689847932,0.58230760346323,0.574813384821203,0.554269861818154,0.502873865710378,0.477970987893222,0.457177099282743,0.446567561996992,0.458747111751608,0.524322301888389,0.531611032656424,0.47876940803148,0.515754470435467,0.468003526500739
970,cane,12m,PC,0.448320806825006,0.547182048500884,0.62304967332413,0.599128633825967,0.554224554875368,0.655945734748683,0.577710528246007,0.578575069561487,0.563377107615151,0.498821483278709,0.480789668213188,0.451726854958385,0.438458467412333,0.453278871257896,0.517988480017477,0.533314420328436,0.482213996474975,0.522423260766634,0.470193341151281
980,cane,12m,PC,0.440788987419336,0.54715236185343,0.62303107272196,0.610726351500415,0.55459170261002,0.657774179429436,0.570781990396384,0.576762407310978,0.57055852640431,0.49293949467621,0.486531235809433,0.447302682576259,0.430817008961134,0.449708599042265,0.511399254839951,0.533915235777493,0.489291764040262,0.527240633494422,0.475040581755182
990,cane,12m,PC,0.439523242166493,0.54622376194286,0.622253600773779,0.621905668307198,0.551783992624965,0.65772524540024,0.557369161883882,0.569546959884188,0.57416920032161,0.485000600363362,0.499705330432175,0.447351059868204,0.429274591077778,0.447381253515319,0.507221616525926,0.531445776573917,0.49875134172119,0.528606139538673,0.479353224512239
-1000,grasp,12m,PC,0.488610774926299,0.505094682023232,0.506521075185109,0.607767006870347,0.494193996973005,0.473137613177139,0.604997926545254,0.511689740600187,0.457116675701411,0.530439238310313,0.466224807325962,0.451655265073769,0.502034705911864,0.500963415830206,0.515224943090204,0.52805110618616,0.469072941518091,0.493014362978573,0.52160227337566
-990,grasp,12m,PC,0.486592118566144,0.501487532408687,0.501536055510438,0.614179921621959,0.496894150897468,0.465313833224521,0.599978236266234,0.515565638187913,0.46417252663459,0.52199139989237,0.45721659638892,0.445031914140881,0.492171600972911,0.505751508412811,0.521713894187464,0.518327362913104,0.467444458971788,0.498623223246801,0.518768032035719
-980,grasp,12m,PC,0.483885861908642,0.499498196348528,0.490274934151797,0.618822027865016,0.504315035904888,0.454871111915023,0.595021968164385,0.517727914882792,0.474904074305932,0.518539333421276,0.449721329975088,0.438442445558688,0.477419325566213,0.509233819927026,0.527737233247056,0.511898083099279,0.462642371271143,0.502569338173455,0.516075663132014
-970,grasp,12m,PC,0.482157489527622,0.497808697055574,0.47486576833402,0.620399848048844,0.515247927934004,0.446218163333345,0.589031915001102,0.517625084052875,0.488900846098803,0.515983689068323,0.448738908618112,0.43278334098924,0.460077841106104,0.512174563870505,0.53507741028833,0.511939848035576,0.458764653634242,0.505111496920566,0.513517547282803
-960,grasp,12m,PC,0.481979613154647,0.494963710590079,0.458142604447069,0.619091416411859,0.526975316418466,0.437483063039363,0.580114039793847,0.514542062691244,0.504626878175684,0.511582473502016,0.449202457145626,0.429039299702116,0.444271745826364,0.514089999108875,0.543745224479675,0.514101694153423,0.45927184916049,0.508475953261285,0.513698416856324
-950,grasp,12m,PC,0.483957353026808,0.489041263117448,0.444456475175044,0.611138750009784,0.537460819828231,0.429456893825034,0.571700654719582,0.510187809746752,0.516633777191051,0.508350712271375,0.448206161845682,0.427142603709828,0.429426094877102,0.514810303281412,0.552167518742472,0.514570652050349,0.462470360191796,0.513558828219735,0.516118259247237
-940,grasp,12m,PC,0.4872891029943,0.479252653642159,0.439322908384588,0.596182336871213,0.542525892047311,0.425101548871776,0.56025369326084,0.504206481569411,0.522209231896893,0.506340202903672,0.443946132330944,0.425816816404261,0.416935148816762,0.513572868781998,0.559723208486413,0.516782003790548,0.467281017593367,0.517326613222266,0.520780278165639
-930,grasp,12m,PC,0.490575742438189,0.468495284463955,0.440314178741643,0.576860540935085,0.543712246235114,0.424777512249506,0.549985225391751,0.498606232059467,0.523422681072855,0.503826884431463,0.438622768547069,0.422050769589667,0.406970313735626,0.51115158011035,0.567105914302242,0.522841279873578,0.472619072060443,0.519227613645311,0.526906243070172
-920,grasp,12m,PC,0.4927478694185,0.462017650700386,0.444825685867995,0.55551895069042,0.543960072047727,0.429145131376234,0.542611960671342,0.495740692902519,0.523127758858374,0.503408247338698,0.436601923450243,0.417631088600454,0.398401815541294,0.509579941732504,0.572905657775517,0.534782884894725,0.478228650327874,0.520902976368381,0.531611093587373
-910,grasp,12m,PC,0.493131305730558,0.459955388298274,0.451473924964671,0.53541874884908,0.543328189084592,0.435526248072552,0.536421119770553,0.495252552988217,0.519569280555767,0.505609756318496,0.438042273064746,0.415847359998115,0.392253543460966,0.508571428943613,0.577351798151388,0.552177894356656,0.482814578302621,0.523138779905387,0.531128388593214
-900,grasp,12m,PC,0.491772248467023,0.459921627489953,0.459518749989311,0.518032636245639,0.541149179857372,0.443717305951098,0.530006848876645,0.497606286592451,0.515468718670243,0.507898011660909,0.446217287433256,0.415611524489621,0.389134439264733,0.506710504694557,0.581837246541822,0.572501623555178,0.486548961448477,0.525713167530275,0.526505831278921
-890,grasp,12m,PC,0.488697564934353,0.461485894298114,0.468117858508416,0.498955814006503,0.537720109970286,0.450747790807612,0.522443071704493,0.499603147887715,0.511674695980528,0.506288966824582,0.458622851061294,0.413467310952375,0.391761812999449,0.505174842984315,0.585201949606937,0.595154054401952,0.490312928136069,0.527528226209108,0.518649986715644
-880,grasp,12m,PC,0.484307078276497,0.46495427705474,0.473981796465093,0.47767734996756,0.535908841662,0.456847064172513,0.515480341854867,0.500125517169474,0.507850395244891,0.501035106548841,0.470678775227429,0.410011589596093,0.399781936784626,0.505239107165442,0.586188408846071,0.619390842257059,0.491686223001301,0.528690271551444,0.509127904919211
-870,grasp,12m,PC,0.48047123451107,0.469725340001832,0.478495843728425,0.456944690335942,0.536938683378877,0.459938872523792,0.5103816156867,0.500824351989686,0.505267116115745,0.495620955591682,0.47770896748412,0.406902266846348,0.411948016079258,0.50413066032593,0.586646518707903,0.639505472642479,0.490128149171269,0.528806528160196,0.502313276031541
-860,grasp,12m,PC,0.478259728494315,0.472869432033364,0.481222999965361,0.440069380493838,0.540584698141988,0.46073808335859,0.50693630086219,0.500947523326032,0.50535833423217,0.491287853694712,0.478722693167324,0.403051526546137,0.423969345897402,0.50214838805731,0.587394661344132,0.648315301346229,0.487162219986293,0.528120087565797,0.498560992105972
-850,grasp,12m,PC,0.478760321613043,0.474594753932759,0.483550972492343,0.428852803822769,0.543741807261994,0.462342392367142,0.506830815670761,0.500725254475467,0.505680210833046,0.489583021934864,0.473311185876789,0.399829109600452,0.433626404909988,0.500438975062622,0.587326352295766,0.642943808121022,0.486225233011425,0.52811398586986,0.496593480908456
-840,grasp,12m,PC,0.481438599269134,0.474831280248052,0.488697979225085,0.420397699959967,0.542780113631309,0.463949384496936,0.512002699258676,0.499936548394296,0.505049560568703,0.490043325795533,0.462051672576433,0.397828093511495,0.441779884729226,0.498581869447872,0.585915258881336,0.628457010094026,0.484808376628967,0.52690724251155,0.495189685856698
-830,grasp,12m,PC,0.484478659812497,0.475682856350377,0.499598959524817,0.414818764948864,0.539695960553506,0.465747033465478,0.519251576830033,0.496512699939509,0.502878476885428,0.493065356273157,0.450112550962888,0.397539342415543,0.447843212962323,0.49665763856339,0.583447148520758,0.611195048171052,0.479698822914304,0.523759165569727,0.493178399713149
-820,grasp,12m,PC,0.488536649320992,0.478399003828776,0.51701407941969,0.413412183057981,0.536235010438716,0.464588906809596,0.52806944888184,0.490955578814617,0.498660537660873,0.499801237409678,0.441793295803607,0.399199644715291,0.45246879296175,0.492449102148682,0.580072671083543,0.59366640214411,0.472273068285989,0.51981696773132,0.490002522199906
-810,grasp,12m,PC,0.491095210986364,0.483524134366301,0.537990862670061,0.417907944356031,0.533777400090738,0.460585849896997,0.540345880099552,0.48470571862269,0.493212773593299,0.509452523053902,0.436179492592684,0.402296141948052,0.455956226559554,0.485455585427761,0.576078607745481,0.579568026455648,0.464850004148363,0.516800769460886,0.487151178605696
-800,grasp,12m,PC,0.491180606318252,0.489121547430471,0.55825954538579,0.425855935797068,0.532162002736981,0.452827753729061,0.552262200420044,0.478606622355327,0.488513096009202,0.51780767306596,0.432901428330115,0.404820077159252,0.458674477167324,0.476999004432125,0.572781818007327,0.573104424404478,0.459603560878182,0.515303740328955,0.482067523238348
-790,grasp,12m,PC,0.488136454400861,0.492760226311919,0.573539438650094,0.435230132905082,0.531538248534779,0.440936505054792,0.556290054358033,0.474200886312034,0.484628245975359,0.522243395856245,0.433847478183091,0.407670619248267,0.460796585352684,0.469311107136652,0.572030169827786,0.572558888951936,0.454175534072369,0.513759993852037,0.473321969275609
-780,grasp,12m,PC,0.481335702399017,0.494685479747827,0.586373557343138,0.446200104521224,0.530600039729869,0.427456794072628,0.555103180072857,0.469713885022061,0.480492361407884,0.522373513125707,0.439743045081479,0.413017768854595,0.463236797414385,0.463760247632636,0.573485083633415,0.574627167997981,0.44851611820011,0.509877522555419,0.46179254180731
-770,grasp,12m,PC,0.473127953556035,0.4968366018257,0.594787506234102,0.458707090963402,0.529385915335468,0.414351248034972,0.551422639310231,0.465864829414659,0.475492517473295,0.519194196195825,0.449316173886031,0.42143355667111,0.464950477673738,0.458888444034645,0.575304931262701,0.575300337868315,0.443094163623302,0.504077208550342,0.451934003081294
-760,grasp,12m,PC,0.464879745559872,0.499312288013375,0.598694062115091,0.47288707707708,0.528995755268648,0.404256506723629,0.546712473403365,0.462644700840069,0.468917261780584,0.51485250803945,0.461981690500908,0.431210078878055,0.464410787649235,0.453353604394703,0.576815608798327,0.574609073346584,0.441331540991155,0.496419049706354,0.445580652255586
-750,grasp,12m,PC,0.457673298124827,0.501464003370575,0.594236057787039,0.486832436867392,0.529940994997616,0.397886741232587,0.538944402327072,0.458073888078237,0.45973463606622,0.514973438263372,0.479213941285181,0.439374373812493,0.460476252447686,0.446393541652721,0.577204674669896,0.569223705649594,0.442678916894446,0.488027422494137,0.442624724510365
-740,grasp,12m,PC,0.453047905531672,0.503930719404971,0.585430672366286,0.499604040371134,0.531319101447405,0.394413349788782,0.52829569427639,0.449008219398993,0.449860879611745,0.520924067302563,0.503294170944593,0.445271617930732,0.453991951005212,0.437954390397138,0.576374193544158,0.554745130152716,0.444845414935787,0.481558395772635,0.440903453465524
-730,grasp,12m,PC,0.451549346086036,0.507650505396332,0.575044807945698,0.508983374326657,0.531391066699911,0.39189956099162,0.519540638370571,0.439427583544597,0.440832957219144,0.532649000807389,0.527583976634661,0.451085543029487,0.446448409008441,0.430260248126279,0.575263514140152,0.535709839993922,0.445355796057513,0.476802664892282,0.440494851569311
-720,grasp,12m,PC,0.45235498806478,0.515042790344174,0.563239846696785,0.515831596833792,0.531239244401089,0.38619430404247,0.513271507055414,0.430244621920612,0.432993933366182,0.547108473481404,0.545428621750099,0.45810341388098,0.440195603282372,0.425676293262507,0.57604798993323,0.520399743837107,0.441416134173578,0.473807126404275,0.442279771242754
-710,grasp,12m,PC,0.453590736893567,0.522352866737737,0.550378599986726,0.520457701505417,0.532148315177031,0.378217698444267,0.508801633224096,0.424839721752727,0.426744701912409,0.561576511409852,0.552893113591689,0.465455849354156,0.437418728214911,0.425616896331692,0.57691087927846,0.509037515695641,0.434700326790952,0.471793505811154,0.446683502150477
-700,grasp,12m,PC,0.455576208899286,0.52826233536577,0.538357973337385,0.523763817938838,0.533695207359328,0.36872570434814,0.503272928180865,0.423307359143226,0.421140132720451,0.571700907205683,0.550358708164326,0.473075953098396,0.439859834143063,0.428319437091209,0.5770784373431,0.50202451027795,0.428774472994526,0.470454379276717,0.455811008594757
-690,grasp,12m,PC,0.456606180627215,0.53297470301335,0.530384098468822,0.52636217592931,0.534496600368869,0.358440918356807,0.492696054517663,0.424676430728889,0.416476267042669,0.575626245185873,0.544043158677849,0.48225484656096,0.446729902963642,0.432153915333554,0.577118801791501,0.498427716158733,0.42663667535768,0.472260632043982,0.469119837136634
-680,grasp,12m,PC,0.457655923822587,0.535545290566079,0.527512649094784,0.525566954540464,0.534846228606258,0.350561835325938,0.479904805130326,0.426510375524954,0.410782950703209,0.574657838459553,0.539038009763632,0.492142852690052,0.455198475729263,0.435554101665136,0.575474731929935,0.502020939742757,0.428219400267359,0.476102000261897,0.486087724322017
-670,grasp,12m,PC,0.45719450220341,0.538775859209275,0.530058599136927,0.522143917100312,0.533247051503685,0.345586418613223,0.469978569342809,0.428478809581139,0.407353522136115,0.572580312640066,0.536269302933379,0.500237688010671,0.465473989829174,0.437219430613233,0.571469784712665,0.513029981618878,0.429516504735999,0.481586952881194,0.503010760896931
-660,grasp,12m,PC,0.453933799095091,0.542187555608116,0.534966583189484,0.517499391028734,0.530700523231668,0.347496187550184,0.45869920795647,0.430229520841481,0.406970562495753,0.565407940514284,0.537176912275361,0.506405536377762,0.478523688027327,0.437959961421089,0.563015755642072,0.523595255935323,0.428778587663656,0.487391709439834,0.517047803082929
-650,grasp,12m,PC,0.45031171795104,0.544537441075992,0.545231462440854,0.513622949695028,0.529714235773098,0.354649476671943,0.44432934960119,0.430606338191857,0.409138585879556,0.556114689218072,0.543615842055246,0.510717277770575,0.493897822864033,0.438023388237731,0.553876549760442,0.52435081167061,0.428276673339884,0.493141422960564,0.531267373417842
-640,grasp,12m,PC,0.448041750681758,0.545938764234835,0.558628413870008,0.512100394050334,0.529980757968173,0.364499501664186,0.43349620080291,0.429945850424809,0.41341628605402,0.546747698460233,0.550796113180107,0.514573634811521,0.507021537903823,0.437962307024426,0.547018895892345,0.515836713535339,0.432981355149501,0.496077874387005,0.544437530566641
-630,grasp,12m,PC,0.447710989426032,0.545266720892256,0.566958853699033,0.507850260347828,0.531571264732536,0.373673085850341,0.432776695431347,0.42829383060095,0.4196460303416,0.536312955382005,0.557407621313736,0.517510295747054,0.517009115159233,0.437812449306345,0.543327829238328,0.5014926775353,0.438990558618922,0.496510407314727,0.553313710659584
-620,grasp,12m,PC,0.44773842072428,0.543410667779237,0.565906540049918,0.497120111646929,0.533167680816288,0.382418683138602,0.439912456916725,0.424392420020604,0.426604385575434,0.525678960968329,0.562552363375311,0.518488548530167,0.524810914859724,0.438565784067879,0.541693575804553,0.486753658132306,0.441810414478062,0.495948351309889,0.558633748499035
-610,grasp,12m,PC,0.448383181976726,0.539075313165924,0.559286518287315,0.482861807200277,0.534059843478802,0.38935592098679,0.451900711932422,0.419697919368264,0.433848190513532,0.515254029075815,0.566614109692938,0.51889517746732,0.530653661422779,0.440583449658317,0.53918560883117,0.475215240967765,0.443890253436185,0.494646000562894,0.557303398928142
-600,grasp,12m,PC,0.448376000936888,0.532835394963673,0.547999078555424,0.470052087927734,0.535282136988057,0.39349524211284,0.46718047010403,0.415591234353245,0.440379470249212,0.506176302176493,0.567679908883725,0.518708381250255,0.534401746302991,0.444460984336656,0.534925828025588,0.466679333778454,0.446017955863355,0.493167850971522,0.54798023126747
-590,grasp,12m,PC,0.448207309378296,0.526452288656335,0.532666546210546,0.461457387054344,0.536224105180849,0.39526072581521,0.48410144464448,0.413701398545395,0.445328316735282,0.500504844313979,0.564304558450364,0.517613492082176,0.536549453215389,0.448784733091592,0.530573442126228,0.460653054563753,0.451616359904393,0.491390583723333,0.535055753109737
-580,grasp,12m,PC,0.44814573583797,0.519728887273223,0.514332540094949,0.456151624417183,0.537841018450489,0.394977265621426,0.501134811507539,0.415154654134542,0.445280426230203,0.496215342785643,0.559494934193371,0.516916996811378,0.536295292009098,0.45445552361819,0.52704154050039,0.456895369049708,0.465433310742517,0.488407237357841,0.520117850473212
-570,grasp,12m,PC,0.448549006957948,0.511161211238881,0.494584211850796,0.451509101981646,0.538851808952921,0.395529489535063,0.513840360455304,0.420497235576573,0.440540684847262,0.491644850040635,0.554794406043395,0.515968606221566,0.530777466574102,0.460237043637728,0.523674573265025,0.452836840788647,0.484658016935961,0.484253159926952,0.505129185349963
-560,grasp,12m,PC,0.448318963260335,0.501059525111751,0.480082768789547,0.447142905822736,0.537091680599212,0.401976216502004,0.522572620702366,0.426211380899181,0.434295224299581,0.485844498992226,0.549036925875636,0.514812918461572,0.522496012892863,0.463673842582413,0.521064469754124,0.450219352363555,0.501424251843459,0.479515991841413,0.493466269717521
-550,grasp,12m,PC,0.447131854637405,0.488182695925141,0.469428271683221,0.443330611113235,0.533012716243326,0.412882969061107,0.526106472043691,0.42996305683035,0.428120159664545,0.478849943101703,0.540938560643854,0.513626844767103,0.5152380009254,0.467717440040667,0.519150485736014,0.447266213426377,0.512928636790905,0.475964760327175,0.485364606947118
-540,grasp,12m,PC,0.445146592081961,0.472687055656804,0.460307707265419,0.441380368465397,0.531309138211565,0.4249017292292,0.526359350843915,0.432568206446004,0.422316519426534,0.471251475774762,0.531967986627892,0.512306535014469,0.512775808005809,0.47218908425875,0.515591200766852,0.444794523529703,0.517698182643248,0.475088598500734,0.48186117306022
-530,grasp,12m,PC,0.442291827214132,0.458034159128559,0.455400845130961,0.442170592232623,0.532107722712205,0.436635913651607,0.526567650566763,0.433633030469177,0.417512225946936,0.464097858785137,0.524057990523841,0.511272835948584,0.516305510815965,0.477392921019419,0.511844757529203,0.444314963304121,0.518595139052214,0.478524724308417,0.483367077265964
-520,grasp,12m,PC,0.438070886292668,0.444380030228528,0.453105960216646,0.446955574201392,0.533611985515514,0.447009847672369,0.529870854121646,0.43629682748093,0.415567903080175,0.457547871713526,0.518805009207613,0.510446598418341,0.522224431539582,0.484271964617576,0.507187828051343,0.447155583565864,0.515925197441101,0.486021879563286,0.490124360393434
-510,grasp,12m,PC,0.434100904051793,0.431173773038889,0.448918174044341,0.454279885320175,0.532871933416362,0.451630119396735,0.531712795684215,0.44165977801588,0.413393219254744,0.451442537743109,0.516078887369093,0.508201399266427,0.528712798788004,0.490264591313248,0.500017484515097,0.452094742075167,0.509903624290195,0.495591617597677,0.500765949786297
-500,grasp,12m,PC,0.43230648701192,0.419631966587451,0.440839542524554,0.463254492772732,0.529545106178905,0.450797012362791,0.5335265306439,0.44779124480135,0.41267470079752,0.448510365277726,0.514121454148295,0.504042784100415,0.535504339813314,0.495143531840851,0.492160384585538,0.459531914891696,0.501470063801791,0.506021134515856,0.51128386413092
-490,grasp,12m,PC,0.431916651757522,0.41127833394964,0.433231865415858,0.470912117981539,0.525571312585612,0.445787817050429,0.536415865585169,0.452639259928459,0.415055802701422,0.451427079832194,0.510471479795475,0.499035227282162,0.542536341364271,0.498246879062787,0.483836684524309,0.464483875834648,0.491908749590684,0.514151145943058,0.520063940700073
-480,grasp,12m,PC,0.430632997268098,0.404820609857384,0.431764076377075,0.474613702015107,0.522515312677671,0.437965594714292,0.537598441753,0.45549616861744,0.42076028979856,0.456655864048884,0.506527779929558,0.494313582292216,0.549723082460928,0.499935323387097,0.472697800483437,0.46594761929388,0.481268139496738,0.519588361964183,0.527548169108722
-470,grasp,12m,PC,0.42757131742699,0.400078924314579,0.435283044925452,0.473559771073969,0.521698511721085,0.431164833805625,0.539940248685557,0.457221092198251,0.430832271576076,0.463618937698906,0.504352608577198,0.489226397397399,0.5541896291596,0.498375960861106,0.460970929796577,0.468188915371583,0.47005411977811,0.523112200801129,0.531785159684136
-460,grasp,12m,PC,0.423080808457276,0.397889849695261,0.439131315695797,0.470299025307596,0.522640858406399,0.426485783212782,0.542939201905987,0.458087608298927,0.440513027031702,0.470818815061344,0.504901911428369,0.482483770311504,0.55411666595555,0.495812534415324,0.452151034542934,0.471796519966155,0.461475501107742,0.52464308794435,0.535136907743676
-450,grasp,12m,PC,0.418166499820151,0.398819072423988,0.444814028878088,0.467530653823721,0.524668553575331,0.423139490328713,0.542018214768182,0.460483840097319,0.446234464204189,0.47710079853381,0.50583551342165,0.475881996080966,0.551311711653843,0.494661556764438,0.447115819290166,0.479338748773215,0.455339993064518,0.524408158145125,0.534734561946514
-440,grasp,12m,PC,0.416180762104239,0.402955238676909,0.452966181668579,0.468411741428806,0.525102654249693,0.421131542064965,0.536982158426091,0.464157101728902,0.451193201204833,0.482986984893917,0.508062776043446,0.469429374244922,0.546275767573029,0.496398501686064,0.445433845606857,0.487794045925705,0.454148313628167,0.522654867679638,0.534045926716432
-430,grasp,12m,PC,0.417945802349406,0.408813662713176,0.463376387106437,0.474250216520063,0.5234541945106,0.421674913632399,0.529657579111322,0.468914046614017,0.457795440579508,0.489238039237698,0.512544602487699,0.46407356569467,0.539407691821535,0.501348875872948,0.448140503258955,0.493963946456366,0.459406500230702,0.522145793163005,0.53471405646604
-420,grasp,12m,PC,0.421188012917603,0.413338788953876,0.476817339294224,0.482423527086495,0.521416943443587,0.423034324481894,0.524355014851801,0.47366413096954,0.464661732400448,0.496190611349865,0.520244332855224,0.460789584913227,0.533227285175413,0.509381816638596,0.455007911587805,0.496179301187293,0.468162469902879,0.523034248991111,0.535073694430511
-410,grasp,12m,PC,0.424388815826606,0.415645086167502,0.489739075390659,0.489480663187045,0.52399065770129,0.42535198090854,0.52188383152943,0.478048594713228,0.470581950404808,0.502038359622239,0.529753636971534,0.460141851933152,0.530052038685746,0.517982946057673,0.464926653811984,0.496339855221649,0.480290449143013,0.522477482001248,0.53453380037243
-400,grasp,12m,PC,0.427460363434038,0.417420843393952,0.500710346232888,0.497716807980415,0.530062891730723,0.427523127752104,0.52120267076379,0.483071337228257,0.474718047698088,0.505762045841063,0.541338071008225,0.460356612364536,0.530313975703841,0.524960546094054,0.475683411479834,0.498962839327205,0.497017041521227,0.520311508096867,0.534550995240299
-390,grasp,12m,PC,0.429690872095944,0.419099319017863,0.508424647552634,0.504910717436928,0.536727210141562,0.432488573940216,0.522190821044234,0.492155168216015,0.480141798026032,0.507335844411873,0.549559104165586,0.459119004539856,0.532190850206436,0.529887184333409,0.484596826334248,0.505226291041078,0.516729172253034,0.517691264058136,0.536055930575279
-380,grasp,12m,PC,0.431395010793323,0.420784894789179,0.508445254468761,0.510094262541008,0.542803216154022,0.439196228769903,0.52572964581288,0.502090857000463,0.487167448996252,0.506828003885809,0.553023395185291,0.458008281430496,0.536526404016026,0.532727347403915,0.493721331805833,0.516739333144558,0.534252990375724,0.516804495682875,0.539943250702168
-370,grasp,12m,PC,0.433692997105911,0.42079621009786,0.503140876061383,0.513157451035856,0.54865285259393,0.444557006668933,0.53111067173675,0.510360853705503,0.49575548347685,0.505077974493658,0.557142030267438,0.458237010696995,0.542247442305862,0.532775158092158,0.504214894562568,0.530413566726774,0.543245541725553,0.516636206466979,0.545759904186516
-360,grasp,12m,PC,0.43686718352127,0.421609855704643,0.497568358899025,0.515401593625005,0.553267077967068,0.44679175882367,0.537259719421429,0.513584108806651,0.505075841724873,0.503324418188707,0.568580837576382,0.461068653170523,0.547708451700349,0.528837562112338,0.51657277338815,0.540632655492582,0.542739437685562,0.514541622419044,0.551218860328748
-350,grasp,12m,PC,0.440093806151184,0.424794191260472,0.492402840158676,0.517582403648448,0.557045100042424,0.447924851042723,0.544152203748295,0.512172015339921,0.513702971196709,0.501679557889471,0.583396754016283,0.467179903419561,0.551639374204179,0.522324561013726,0.529224560546628,0.549016920165996,0.537178284397438,0.511865921697763,0.553264892445955
-340,grasp,12m,PC,0.444762831203089,0.432240673729552,0.487391511637854,0.520003595412292,0.560547415219804,0.449257618894535,0.546483996370042,0.507290630412766,0.522972261408632,0.500150195634132,0.5978852020553,0.474058563798824,0.552968469193645,0.515975749641008,0.540569759105622,0.556772559482745,0.529839401885226,0.509574434287752,0.552722019380212
-330,grasp,12m,PC,0.450109637011577,0.442937234447083,0.484463388687942,0.524271228049688,0.565736828743477,0.449878695949143,0.541080842950031,0.499268815759805,0.532034044452207,0.49986481269635,0.611019724411536,0.48028219671486,0.55130564352193,0.510709643364713,0.549859160089939,0.563878571083975,0.523665442684602,0.507821505416119,0.551237286355462
-320,grasp,12m,PC,0.454180141637274,0.452747806289631,0.483186188233181,0.529711525102173,0.570670427625184,0.450816102903875,0.531548068600293,0.49079830612753,0.54030224775873,0.502011622928502,0.621772421204095,0.483759437638815,0.548528485902105,0.505477004471195,0.555098558216165,0.570989413323983,0.518593996574215,0.507080067575883,0.55016491779557
-310,grasp,12m,PC,0.45657531502671,0.460668185053113,0.483989692375992,0.536176143928806,0.575885213068467,0.452436722928123,0.522917503984267,0.484780725662156,0.547153667474172,0.506912136799875,0.630665812741481,0.482254162681365,0.545161728463685,0.499426744447222,0.55483527990128,0.578422915999662,0.515243994032413,0.508340259471405,0.547505715945793
-300,grasp,12m,PC,0.458166462466024,0.46809318556035,0.485886232839447,0.543322575991132,0.581551872642921,0.453124646753611,0.51606232618,0.480584896691745,0.552414176491709,0.513899035743697,0.636536940355216,0.475699728981108,0.539735745124077,0.492575364818446,0.550666671569368,0.586617235525928,0.512170091863619,0.510406813763901,0.541255807399269
-290,grasp,12m,PC,0.459123086935007,0.475740807902104,0.487553659313927,0.549123022603525,0.585815559013922,0.449585636501296,0.511471755385882,0.47640573360535,0.554654390373548,0.523886766858684,0.639457526605217,0.467260634792889,0.531638736740526,0.486117066490344,0.543906882202302,0.597043417540269,0.509625374871643,0.512554671307074,0.530990760725007
-280,grasp,12m,PC,0.459824506163224,0.483084355526394,0.487660224440325,0.553068388257544,0.587455978438836,0.441030207782091,0.506295366980021,0.471976984766506,0.556999559834878,0.534643935908418,0.641359499336125,0.45804336185156,0.523165827234632,0.480243495203311,0.53394798746725,0.607015603632958,0.505833634668613,0.513291580489191,0.517075358722531
-270,grasp,12m,PC,0.459081107890937,0.48986003756082,0.486863080841506,0.554587826427902,0.58642963740202,0.426179471407927,0.497991977614828,0.467487758297188,0.558388354737556,0.543400404249914,0.641486470753341,0.448193473118807,0.515244722776469,0.47535949209262,0.521036103335159,0.612030085422291,0.502231626003194,0.510522119754209,0.500871513198884
-260,grasp,12m,PC,0.455518860499576,0.492860529940299,0.488249115510578,0.554656465819223,0.584437169395061,0.41001330449656,0.488463623227436,0.461082930070395,0.558059664671513,0.54891446974036,0.640783936629822,0.438780569822284,0.508422585940416,0.4727199748454,0.507026960543273,0.610859596340716,0.498261234609653,0.506779855848926,0.483631605836684
-250,grasp,12m,PC,0.447729826374458,0.490260209974668,0.488959228421696,0.552337504423279,0.581102978687784,0.394225153407956,0.476562299035217,0.452300573168903,0.55607963433278,0.550654769330932,0.637383945140851,0.431428090706737,0.504299704546344,0.473220042456529,0.492663028399838,0.602811073051243,0.491427203950277,0.504008075199654,0.466489363269153
-240,grasp,12m,PC,0.438546664891487,0.482825654290774,0.491639221402086,0.548899661616184,0.575901065974307,0.378785955545107,0.459825316902576,0.441212140630001,0.550413435405125,0.548935738344483,0.632995315284368,0.425797448320664,0.502522688416374,0.477207069150863,0.482488128577087,0.591597720410825,0.483873610011845,0.502651645392632,0.452147270026868
-230,grasp,12m,PC,0.429440222727145,0.474785326012716,0.499768332577889,0.547771084488138,0.570135103082281,0.363634059439297,0.444433583137996,0.429602744690661,0.541890652996513,0.543810682763441,0.627086968057979,0.422226956309562,0.50314273810132,0.482125621205185,0.476874941363034,0.578251006003808,0.477005811634399,0.502319710920178,0.442526158678207
-220,grasp,12m,PC,0.420366415254159,0.469083778645359,0.511664754580115,0.550448865247231,0.564000347482768,0.351808277664985,0.438443818862511,0.418071843479995,0.529666698072406,0.535981897910715,0.622239921583043,0.420433236066877,0.503749338693501,0.485342278939324,0.474211129250539,0.564561224163862,0.471219723626096,0.5027209899227,0.440587107495598
-210,grasp,12m,PC,0.412308957343335,0.46811525436416,0.524661042400723,0.556389179573947,0.558966821129864,0.345669262961957,0.437667455672987,0.408021160549743,0.517333197671109,0.526368961932688,0.618187622621639,0.419589244212893,0.503130923309507,0.488295357480092,0.473227634083543,0.554075832599505,0.467408470415422,0.503545433798114,0.448201026052035
-200,grasp,12m,PC,0.406414330588534,0.472650522701576,0.534911669259125,0.568017063585549,0.555368310063215,0.34455375226776,0.440089923765286,0.399237635946856,0.507745875035935,0.515809329274104,0.614729122111313,0.417964261342753,0.50319099480561,0.492958091926807,0.475336673821779,0.547205648957715,0.467207427316304,0.504170807938806,0.46212545369807
-190,grasp,12m,PC,0.403344856731933,0.480830431991586,0.542652217075237,0.582004631502234,0.552124693480326,0.344924871519368,0.442972976925144,0.392033035960904,0.500874293224252,0.50432187628393,0.614290655330919,0.41688398465251,0.502351364408209,0.498462611351046,0.479183411328013,0.541326992306373,0.469705890142701,0.50298241642382,0.476796409753521
-180,grasp,12m,PC,0.404246475794739,0.488234273548376,0.546525006520608,0.593999524209513,0.550584083104108,0.350735105906593,0.444715801508278,0.387431055918666,0.496810942502271,0.49154260874886,0.61481991303738,0.418179391869251,0.502942817491071,0.504440617499678,0.485513338543823,0.535383180615798,0.474992459454158,0.501217059293317,0.490389031910538
-170,grasp,12m,PC,0.406794724283971,0.493490710540715,0.547751845030244,0.600600690471619,0.551595436529301,0.360492883450816,0.447980919852145,0.383735145145345,0.494696608462119,0.47886267593678,0.616657102945791,0.421907606755036,0.503856795987159,0.510336992913056,0.497872912604792,0.528581527993842,0.482596092899034,0.500046807742417,0.502262258694848
-160,grasp,12m,PC,0.408649431110451,0.496463458178682,0.547598810587594,0.599607135283536,0.552017296926643,0.374189793937457,0.452608040575216,0.380236213691829,0.492011676814194,0.466369285008465,0.618914852636998,0.426812564985494,0.505147197382196,0.513567579107988,0.511385570903849,0.519132350260371,0.490306071784425,0.498543236296779,0.509104008798408
-150,grasp,12m,PC,0.408513255201707,0.497681030187884,0.548157009342483,0.594039595725958,0.549266296716066,0.39049723357513,0.458709854754567,0.378837410591848,0.487079718145058,0.457405906187035,0.616850127524136,0.431975815004667,0.504149597691808,0.514179192620833,0.524264407587511,0.506197728086082,0.497707349286099,0.498104112909531,0.508894631148345
-140,grasp,12m,PC,0.406762349733491,0.497121743046279,0.5469686556759,0.585044395836304,0.541520581757583,0.405788612842725,0.467555357443999,0.381593389888345,0.482677085526709,0.451958386970499,0.610115100771972,0.436761598957239,0.501805222376515,0.513634182374862,0.53562993238489,0.493147781193763,0.504391007722298,0.498220117464131,0.50491747607687
-130,grasp,12m,PC,0.406223447402165,0.494960243994443,0.542140406030528,0.572746306846056,0.531062896461022,0.421072929414626,0.475473625899114,0.392165493763842,0.478561413230581,0.449692130649777,0.600110675637914,0.439110591268076,0.502067048880462,0.514469110186605,0.544029210614079,0.481262064421139,0.508326364734204,0.496174257149161,0.5020343332531
-120,grasp,12m,PC,0.408995115200312,0.492337781730901,0.533341099012969,0.560548802419989,0.519406076561269,0.438660948506381,0.47952497034496,0.408842876130743,0.476207257589935,0.448137926551655,0.588606690061689,0.441871059794023,0.507436600109507,0.514914698778728,0.549642769018781,0.470631598152356,0.509192685211648,0.492821567201388,0.500661487737699
-110,grasp,12m,PC,0.415130169722732,0.489803522363382,0.522444057334999,0.552031345366582,0.509925957022144,0.457714852951809,0.479995030576592,0.42807751428197,0.475025068413731,0.446310063782572,0.574846465310288,0.446771289728789,0.516157910113942,0.513986479746655,0.551555563932228,0.462474389220348,0.507539181948975,0.489049779624282,0.501157795720071
-100,grasp,12m,PC,0.421509350485784,0.485455311760863,0.514638812600612,0.545131860402612,0.502950075060561,0.474427499833259,0.478776892722957,0.444019008499652,0.474564474270924,0.445115681240762,0.561651764380044,0.454967857947067,0.525768593605298,0.512442210053257,0.548619556639382,0.458034676073801,0.505031636535251,0.484147793512925,0.50482529477779
-90,grasp,12m,PC,0.42739757155276,0.481163512545903,0.509896761856786,0.540295995442178,0.499168728427412,0.487664663289528,0.476921815390631,0.453376508015956,0.475293934550971,0.443607306163658,0.551955743800554,0.464329918517135,0.53432640953685,0.512911519318797,0.543124623190749,0.45387359493861,0.502415696355991,0.478842098659821,0.510573849757752
-80,grasp,12m,PC,0.431612128347136,0.478244389560873,0.507084839664256,0.542085108036256,0.497775823855446,0.49652598420081,0.475306512887821,0.457334197387697,0.475925528950083,0.439453000966359,0.546212506497312,0.473099335024122,0.541414499117913,0.514438181881965,0.53644793277664,0.448439768089852,0.498170401135443,0.474155050748026,0.515693478605514
-70,grasp,12m,PC,0.434503060468615,0.477702169981931,0.507800540055861,0.549369695825088,0.497663870815157,0.5045831640509,0.482415006576779,0.458643886761579,0.476931347002299,0.433632457708891,0.541656286449937,0.481458978133096,0.546078042840094,0.515633584202562,0.529809073557417,0.440226162598166,0.493736207608896,0.473244772446366,0.520002072554625
-60,grasp,12m,PC,0.438025588716299,0.482259857401376,0.510690364749479,0.558267459210403,0.499369880075934,0.512610203081602,0.49855198644495,0.458679371580619,0.477922898819175,0.429041601093947,0.53627776002253,0.489168522632568,0.545445224107155,0.515446841872899,0.526690325517107,0.431522509504278,0.490617768701269,0.475798808338427,0.522547679535306
-50,grasp,12m,PC,0.439622812092981,0.487832314764804,0.51341708401393,0.563546084508741,0.502915800115816,0.518960924961786,0.520897964406765,0.458696054513213,0.478118060409639,0.429155307386921,0.529488867414235,0.495822490736093,0.541983261072134,0.514613634492585,0.528013797973783,0.425335932234536,0.490763768098806,0.480318262557195,0.523679747891656
-40,grasp,12m,PC,0.438536550977425,0.492700753561818,0.514000448956911,0.562399540649819,0.507309539506509,0.526283189340575,0.547373761123342,0.459420197139427,0.478385322005924,0.433298802177234,0.522777868643462,0.49936864202176,0.539536249800756,0.514135666246532,0.530426406800276,0.425355358120527,0.494782948335186,0.484447839769848,0.523740114318254
-30,grasp,12m,PC,0.43694494324458,0.496657602995728,0.514501806703414,0.556775809830191,0.513525458670856,0.534288498958183,0.576675395099754,0.465113615779729,0.478200610853027,0.440975814170035,0.521521002340788,0.500279764166487,0.54115795530343,0.514738260829248,0.529929547433731,0.43326514882495,0.500516472957007,0.485056759631975,0.523947308191036
-20,grasp,12m,PC,0.435694985872426,0.500891161144959,0.516634282396683,0.547750950644059,0.520974154371725,0.545144221190859,0.602125669706258,0.473619961001957,0.480212651000818,0.450050853238118,0.522584720603428,0.498471967238237,0.546053510555156,0.516829508220868,0.528838266896628,0.443052101854678,0.510335987430629,0.48247167253405,0.522824115710446
-10,grasp,12m,PC,0.43731367965756,0.505015430123829,0.521175093712531,0.538790428257771,0.526960422470603,0.55713019260157,0.622420404554129,0.482008218140258,0.482383635320122,0.458856817564456,0.528730607941165,0.495318758086775,0.55142182746909,0.518990021375113,0.52971275357547,0.455143647865648,0.523038880631666,0.479458548024581,0.520332882945731
0,grasp,12m,PC,0.441127145446385,0.511222264247924,0.526458075276939,0.532327089898731,0.53101487013109,0.56939347703665,0.637636857259081,0.489368454988227,0.483876342451966,0.465177721829805,0.53802277749188,0.492171626726116,0.554584248663926,0.520138558833964,0.534376404796294,0.466681611078786,0.53436241077881,0.476018843443106,0.51954718995412
10,grasp,12m,PC,0.446512298836001,0.518221629643483,0.53314165520722,0.528836210922527,0.53514481572709,0.579026588897287,0.649600030359179,0.497699748772925,0.486286413354469,0.470419089718261,0.545787637723071,0.488692348232732,0.556134822953117,0.520692741385043,0.541235456342398,0.478251036703089,0.541894942187303,0.471967030693521,0.51964202271958
20,grasp,12m,PC,0.454477812174651,0.525828035530175,0.542343402996426,0.52974653421832,0.538970476631692,0.583746429502196,0.655857428286576,0.506820748112562,0.488766469709839,0.477704924684919,0.548059502084543,0.486281086645208,0.554735390068626,0.521451590544878,0.548109684381135,0.487983780910241,0.54454857549968,0.469325289192088,0.519224721108951
30,grasp,12m,PC,0.46402770196962,0.531384543915193,0.550311853813869,0.53351402867374,0.543458708176868,0.585409147066939,0.662488885416324,0.515713246613,0.4924169324085,0.488139358932444,0.548233053098732,0.48442547719022,0.553217522060988,0.521097410306984,0.55419274536635,0.497038612595779,0.542665930164872,0.470000313735549,0.517755480864833
40,grasp,12m,PC,0.475671050657127,0.535029884777581,0.556267384217575,0.537487854271969,0.549052756586522,0.585278917444386,0.668307697531961,0.523070148248649,0.499267960739533,0.500206814381401,0.547838839091064,0.483706283802267,0.55226940290806,0.519879895863082,0.558445744925695,0.502786718689782,0.541140589297361,0.472498663888145,0.516952377198608
50,grasp,12m,PC,0.490113921567347,0.538110385904483,0.561182136567899,0.541672048005446,0.55287508684722,0.583799599591502,0.669041030789858,0.526731022722312,0.506615694293804,0.511010163293027,0.549202841151856,0.48439791869208,0.549328689972851,0.516041639224739,0.559106392901164,0.506700453815998,0.54147817151433,0.476338718981647,0.514848389588124
60,grasp,12m,PC,0.503526202051796,0.53906863312636,0.563326899916682,0.548438736397987,0.555466268081635,0.582522338402664,0.6647757020927,0.525910216027449,0.509310789238569,0.519028925538187,0.553675104316159,0.48505792909411,0.542890200929157,0.51035687106515,0.556959684186809,0.510276519900167,0.540346730934119,0.481443531525999,0.512028150175074
70,grasp,12m,PC,0.514180532291753,0.536382232746453,0.564423386485323,0.558941375236189,0.558298449434556,0.583955681935715,0.658182384675929,0.523137022409224,0.51200802279264,0.523400090807258,0.556465770770751,0.485685891451469,0.534928989575566,0.503759256167161,0.551770937206533,0.512835153283866,0.538347545470001,0.485404036734837,0.508079167330462
80,grasp,12m,PC,0.521151524563931,0.531260135599145,0.56592683564662,0.570217410556116,0.561405775275455,0.586124927437231,0.649911855772815,0.518799001831151,0.513368634015621,0.527431144113592,0.555564979517546,0.484896240204332,0.52545526096223,0.498435997700384,0.545111222720593,0.516305048387478,0.535635580703568,0.484952310949519,0.500327087627676
90,grasp,12m,PC,0.525158291993928,0.526211078804343,0.565029294164887,0.579644450061725,0.562806120793161,0.587647496734714,0.640757904346096,0.516318516095021,0.512354640375556,0.532172160753133,0.552636066198841,0.48147951000886,0.513003381617356,0.494381320769495,0.538362504678726,0.523373281795334,0.533866441295048,0.480606412701372,0.490541653884835
100,grasp,12m,PC,0.527718735068091,0.520498891639687,0.563426186566244,0.586613472429034,0.56373973430116,0.589711368221769,0.633319558286957,0.517873865676731,0.513199429858917,0.538364826547109,0.546117741811927,0.476947555669487,0.500196287667735,0.489784371838338,0.534057723672565,0.534233220258293,0.534859642778984,0.475550765282601,0.481112912561394
110,grasp,12m,PC,0.527097020421232,0.51593626878514,0.561590168110731,0.593088179044674,0.566382682020806,0.591854598464309,0.626291676468412,0.521529354112443,0.515900207241895,0.543036939109754,0.535529328288601,0.471496434534622,0.489933203879531,0.483231205857961,0.532476440975614,0.547647250993227,0.539192849585925,0.472463261742682,0.472048499394076
120,grasp,12m,PC,0.523695476624408,0.512190508665287,0.558636361937837,0.59910774085004,0.570540119993366,0.592877336407874,0.618045633611492,0.526479544963,0.513884815473564,0.546736297816425,0.525818733148035,0.465591510491522,0.482847439910969,0.475471556702761,0.531731043301847,0.558216998025703,0.54520930818692,0.471352175725033,0.46402130636392
130,grasp,12m,PC,0.519068198701547,0.510949991343594,0.552007511299183,0.602765101644252,0.575291449114175,0.591120914324638,0.609862696475675,0.531181814598388,0.505631733526527,0.551249884303857,0.51494119372805,0.459821740015728,0.478894444969367,0.468246608639145,0.529290313121704,0.560956472829037,0.550564970052952,0.472685727141674,0.457500657087242
140,grasp,12m,PC,0.514392835524556,0.511250421558583,0.539873799829276,0.600684617520083,0.581004961560217,0.588753661510674,0.60050131056288,0.535112892440706,0.495448186518837,0.557391124004442,0.503593072410673,0.456053696500374,0.476159992115892,0.464303843799574,0.526781831922015,0.557378705868285,0.554930558777148,0.478623135106818,0.451491534403793
150,grasp,12m,PC,0.509688042684818,0.511319729562249,0.523689897990398,0.597052065272631,0.586892833194624,0.583832709761515,0.590665395161543,0.539405233906884,0.486575493977032,0.563491850700586,0.492315718288733,0.453054038799298,0.475686645486411,0.462359827788981,0.523745636718195,0.546957186387675,0.557870047232166,0.487798471912308,0.44581142975315
160,grasp,12m,PC,0.505026822658576,0.511494478240559,0.505509688266676,0.59382995885364,0.592660276115038,0.575254185238835,0.586218798275985,0.542564443014635,0.479938221394264,0.566726066541908,0.48435224466641,0.450086875272225,0.475791002330155,0.461563408722734,0.520752599788956,0.533408017163459,0.556893866855845,0.497687052193845,0.438204073743141
170,grasp,12m,PC,0.498218263928323,0.513003343776118,0.491949242700966,0.588462331967043,0.598508021138212,0.564786159608965,0.588837082456476,0.544697133445984,0.476263512948749,0.56429004733941,0.474772212334696,0.446826824238163,0.474836896764735,0.462414521362018,0.520275799369135,0.520679538101758,0.553773820240217,0.507305563848942,0.432285895546022
180,grasp,12m,PC,0.490070514166085,0.516147428072649,0.484968700029993,0.581572225787776,0.60538310064322,0.552472370846062,0.594379123746275,0.546365082636109,0.474034424698535,0.559530014009221,0.461038043633227,0.443704670488274,0.473533033172159,0.463929061528817,0.523540233710474,0.512536879361169,0.550887403546245,0.515055076625729,0.43075884885002
190,grasp,12m,PC,0.480998494427631,0.517799795635794,0.482579023295252,0.572490723487412,0.61293977012551,0.54021428264096,0.602010267792194,0.547546236714747,0.472192902956882,0.553564637277732,0.44750522601556,0.440917919555343,0.470823669056403,0.462862248115128,0.527621948931504,0.507704347227328,0.551142161538579,0.517767993079104,0.434109837699178
200,grasp,12m,PC,0.47161081872649,0.517281135777515,0.484804957095368,0.564043533354765,0.621120628820134,0.529377238963365,0.608573692671245,0.548362111256569,0.471701616015099,0.546984070848713,0.437919346225137,0.440128049497675,0.467805395289369,0.461432037994827,0.53159911499606,0.505311499307199,0.554376876585929,0.516317089597184,0.439877033599333
210,grasp,12m,PC,0.464983729966904,0.515360052616397,0.489892446005663,0.557325020519107,0.6278081317538,0.517580894798452,0.613943044938693,0.54695343461206,0.470543234124516,0.541961692299673,0.4319466950121,0.442463859139283,0.464689214320482,0.460893922462238,0.535400937504872,0.503807818399625,0.558278451909142,0.512366282738512,0.445600563306078
220,grasp,12m,PC,0.460107720170884,0.513737469579409,0.497754953427879,0.548591090080094,0.632019943855298,0.504436247559605,0.617481470679971,0.544526549276786,0.470092138344351,0.538264732136606,0.42843802735827,0.449440307655286,0.460673406116606,0.461691622532448,0.538696447335704,0.500533129488763,0.562947001615567,0.507889873705223,0.4520006961023
230,grasp,12m,PC,0.457928931574709,0.511857169153974,0.508710926842843,0.536874971839842,0.63432244639037,0.493294220980309,0.617212840227603,0.543167506320691,0.471522283665691,0.532775261961013,0.428129950478554,0.458270432864446,0.45668510665327,0.46547054270821,0.540683222388413,0.496163759521397,0.564760459640605,0.504433416721223,0.45804392830116
240,grasp,12m,PC,0.458941332518458,0.511709783660146,0.521430860967396,0.523837542980654,0.634668502620216,0.485097757209142,0.616256341351721,0.540186104774889,0.476362395808235,0.524280086133576,0.431278658017415,0.46845196085558,0.450153845002874,0.472249028935698,0.541163590070489,0.489297267782304,0.561926431394899,0.502609315307957,0.464698170614194
250,grasp,12m,PC,0.462337207613929,0.512774060923096,0.532932214539182,0.510181752938272,0.632141209983036,0.47613039633154,0.615490380523354,0.534586031611635,0.482517152841471,0.514876560537948,0.436102575112002,0.479244963735346,0.442236919352012,0.48099133998122,0.541604730113909,0.484427692183776,0.556128663349474,0.501651282788054,0.470942502084062
260,grasp,12m,PC,0.468182650478046,0.514347909714033,0.539881713110192,0.495994820551952,0.627348142702956,0.464298717798892,0.611834978856367,0.52793492069565,0.488812315750466,0.505875253793229,0.440026263661113,0.488244327238301,0.434313697967813,0.489726454518363,0.540577359897362,0.484688378245946,0.547958752413998,0.501422990595918,0.475922465222192
270,grasp,12m,PC,0.475523611102564,0.515626409035379,0.543071210293767,0.481712969372398,0.620747375364664,0.452449551031919,0.604284345577,0.521685082097996,0.49650911893017,0.498984232050913,0.450282539727087,0.493421646509185,0.426214261307232,0.49903330395425,0.538091236664003,0.484657182863731,0.54004793849067,0.501282447584711,0.480005826191666
280,grasp,12m,PC,0.482917889120077,0.515805146164099,0.54422443452695,0.467024785915427,0.612654642057464,0.438883875730428,0.598730354916032,0.512876337367061,0.503177514931762,0.494048660131087,0.465604829993898,0.495792894292263,0.418936723344858,0.508923065929157,0.534731306816045,0.483002919590937,0.534262538339856,0.500089409722142,0.484366377850056
290,grasp,12m,PC,0.487616756838183,0.513998401374967,0.544763949579188,0.452061746228999,0.605474315205093,0.4266909077403,0.595551542036227,0.501834640620549,0.508905104633077,0.491099023777419,0.482804062581388,0.495867738315585,0.412648189318749,0.517704828544983,0.533228279827819,0.475514114477242,0.529948692828585,0.498383557450577,0.487784589804715
300,grasp,12m,PC,0.490644197134533,0.510338339845038,0.545238835147572,0.438593074706595,0.597102569537361,0.416961103601466,0.594721646202089,0.49049031187612,0.512963250983249,0.490150976512319,0.498205991329904,0.495280251703713,0.410916415481353,0.524679895988769,0.533590564875528,0.463087472815116,0.526475686726864,0.497044025204715,0.491596543474888
310,grasp,12m,PC,0.492697702513169,0.504923922205928,0.547321138339056,0.428404258976802,0.589303521948708,0.407924069746787,0.595871008984378,0.480411953950083,0.511984957297982,0.490016570004816,0.510327784274073,0.494173284444083,0.414221744129284,0.532235722178999,0.535968263455856,0.455034228167488,0.523593052347092,0.496666931885319,0.494026297318386
320,grasp,12m,PC,0.495383184454327,0.498451145939384,0.549324891345658,0.422372830216919,0.584606546950403,0.398956374957344,0.597248154152178,0.472136070411144,0.507774149507157,0.488751271215972,0.522980759419398,0.491970805857718,0.418636693816638,0.539910344041458,0.53900996944601,0.452964415336941,0.520106078048384,0.495967004742739,0.49288843890569
