Time,Condition,Age,ChannelPair,TrialNum,connect_overtime_LA_EEG_12_P04_CTS_MTH_chanpair_12m.mat,connect_overtime_LA_EEG_12_P05_CTS_MTH_chanpair_12m.mat,connect_overtime_LA_EEG_12_P06_CTS_MTH_chanpair_12m.mat,connect_overtime_LA_EEG_12_P07_CTS_MTH_chanpair_12m.mat,connect_overtime_LA_EEG_12_P08_CTS_MTH_chanpair_12m.mat,connect_overtime_LA_EEG_12_P10_CTS_MTH_chanpair_12m.mat,connect_overtime_LA_EEG_12_P11_CTS_MTH_chanpair_12m.mat,connect_overtime_LA_EEG_12_P16_CTS_MTH_chanpair_12m.mat,connect_overtime_LA_EEG_12_P17_CTS_MTH_chanpair_12m.mat,connect_overtime_LA_EEG_12_P19_CTS_MTH_chanpair_12m.mat,connect_overtime_LA_EEG_12_P20_CTS_MTH_chanpair_12m.mat,connect_overtime_LA_EEG_12_P21_CTS_MTH_chanpair_12m.mat,connect_overtime_LA_EEG_12_P22_CTS_MTH_chanpair_12m.mat,connect_overtime_LA_EEG_12_P23_CTS_MTH_chanpair_12m.mat,connect_overtime_LA_EEG_12_P24_CTS_MTH_chanpair_12m.mat,connect_overtime_LA_EEG_12_P25_CTS_MTH_chanpair_12m.mat,connect_overtime_LA_EEG_12_P26_CTS_MTH_chanpair_12m.mat,connect_overtime_LA_EEG_12_P27_CTS_MTH_chanpair_12m.mat,connect_overtime_LA_EEG_12_P28_CTS_MTH_chanpair_12m.mat
-1000,cane,12m,PC,Trial1,0.578058405686662,0.673176936539149,0.544919782356611,0.690551540158642,0.685248064299645,0.793007726451106,0.324976208180429,0.436193836332261,0.517764605480968,0.624418663545756,0.451400700439968,0.751496335375623,0.626838385967077,0.720004451794418,0.868304506570688,0.510912297157672,0.90787659630816,0.438099455955606,0.436904349888418
-990,cane,12m,PC,Trial1,0.575531864616994,0.680761549570414,0.535845030638283,0.687133185430577,0.679798624786575,0.797793310037665,0.333612534013895,0.422299092517071,0.494227134562747,0.60254519177258,0.465736873474182,0.740982491025393,0.620055172291795,0.716339808170916,0.878593021998963,0.537005268347733,0.902833674399731,0.453363028910257,0.442844317526629
-980,cane,12m,PC,Trial1,0.571818785373241,0.687532916294598,0.527561427952528,0.681626911422408,0.675299968083825,0.801984244604625,0.342778599741583,0.410292404504103,0.468678154840071,0.579894514516506,0.482002675791037,0.732380783475712,0.6129464107679,0.714428384109859,0.887592328872618,0.562580915970262,0.893253188897476,0.470610793408794,0.447680416935571
-970,cane,12m,PC,Trial1,0.568560840382197,0.694673713678578,0.51966924643279,0.674664287595936,0.674486548702412,0.80550602041676,0.355093153336424,0.402710051432072,0.443459691791198,0.557951108510897,0.50221120851457,0.72659267864856,0.60521262511306,0.713963639606224,0.895027720649438,0.587696850749673,0.881597417463153,0.48865217286998,0.451265774121787
-960,cane,12m,PC,Trial1,0.565657342597708,0.702508982330039,0.509698605667033,0.6653445570385,0.668773648345215,0.806315335983946,0.371774210797389,0.399745776514118,0.41918068027909,0.536808415950046,0.524980855364915,0.722599094808336,0.594451783675222,0.713816196981151,0.90046111339715,0.611818664999235,0.868412671833582,0.50476154137249,0.462164470453735
-950,cane,12m,PC,Trial1,0.563713051510672,0.71117179588867,0.496976681329423,0.651141919340964,0.661387031951212,0.804572548150984,0.392564510507227,0.400993858949256,0.396026822915429,0.517236884513294,0.548366788700356,0.719479669733754,0.581399179392566,0.713301138077155,0.903027442194467,0.634824227344549,0.854120626354205,0.518881103424832,0.478598624076948
-940,cane,12m,PC,Trial1,0.563127844949985,0.720949650651803,0.482113694350664,0.635727163440722,0.651978204180781,0.801936558654803,0.417612689948398,0.407863615981783,0.374090994617158,0.499908991822399,0.571134566289136,0.715552068659124,0.565874108102054,0.712031702662257,0.902961693801933,0.656486523228475,0.839080480165266,0.534361976710517,0.497537721609779
-930,cane,12m,PC,Trial1,0.564221086926566,0.731913343873032,0.46481565831057,0.618970475537958,0.640369525461336,0.798675427984767,0.446698202711093,0.416829985891933,0.354013739698683,0.485011440028973,0.591439133915208,0.709812692251725,0.547094301770258,0.709498001603026,0.900648657383485,0.676472107924286,0.82357345342275,0.548372942425056,0.518002694790591
-920,cane,12m,PC,Trial1,0.567205507710816,0.743947871716453,0.448725725831046,0.599437038489433,0.626975641759028,0.79374791473005,0.477098855993913,0.428595674241401,0.337928992768098,0.47188403904592,0.609471520618966,0.702883442210154,0.526726433156148,0.70488621431198,0.896813951066875,0.694667580039761,0.807835004851549,0.56091986700844,0.537495545280078
-910,cane,12m,PC,Trial1,0.57225241803528,0.756804433258715,0.436048847971636,0.579168353808823,0.612692114926479,0.787132889686443,0.50640191395428,0.442901684200675,0.324987218863488,0.460179272165812,0.625725507541667,0.694310684763274,0.504325162715976,0.697025144937584,0.892248483146815,0.710549035684964,0.792070146240686,0.575440373338326,0.559493232445425
-900,cane,12m,PC,Trial1,0.57874379965304,0.770099021359819,0.426556564503341,0.559023867692962,0.597681229437071,0.781278527923591,0.531987630841174,0.459437772371326,0.314485234533881,0.449968192529558,0.640457172257642,0.683924483851977,0.482083094910857,0.683703413478049,0.887372560968429,0.726225866135939,0.77645135591612,0.590250049406605,0.583147891311538
-890,cane,12m,PC,Trial1,0.587344677121951,0.783252551449439,0.419422099014276,0.539386411717442,0.58469854063589,0.77730937425335,0.554146392644074,0.477685880936362,0.306553167371961,0.441689203088709,0.653575164773041,0.671627122252691,0.461712301820577,0.666837564440289,0.882469631580891,0.742052327213372,0.761106806544044,0.60284466994581,0.6069038479385
-880,cane,12m,PC,Trial1,0.600990122723791,0.795217560750299,0.413801007664861,0.520387990309036,0.573994689219615,0.775213064015054,0.570711709577801,0.497516068032919,0.300700503502825,0.435014801736615,0.664487673836194,0.657376404357382,0.445097244334214,0.648541984955171,0.877759652689051,0.757951927445933,0.746105465538388,0.615646163875661,0.630601558560162
-870,cane,12m,PC,Trial1,0.614879120911328,0.803192199188921,0.410059520564781,0.502087880938727,0.565925139173803,0.776717575108623,0.580315143121578,0.516441073594894,0.299105157396683,0.4291905739768,0.671846500485345,0.641150783879567,0.431981031151636,0.629477707641717,0.873414715866226,0.774050312249112,0.731443946474745,0.629003470101188,0.654653512150388
-860,cane,12m,PC,Trial1,0.62798919977921,0.804874410069749,0.407788652866348,0.484691425244657,0.561075117869488,0.778818833701689,0.583940016571138,0.534122893420428,0.300395650201009,0.423789760863133,0.670963206188932,0.62290247391033,0.421156067466204,0.610077951295957,0.869565135606501,0.790352535773332,0.717039262658563,0.642531429741894,0.678366201502747
-850,cane,12m,PC,Trial1,0.641127827008917,0.801818444361505,0.404837693904435,0.468712858618388,0.559465281216265,0.780860455201005,0.586936766473167,0.551023966167218,0.30357966045025,0.417546276140308,0.663368219301209,0.602532393336964,0.411250500154499,0.590689746172271,0.866297635865829,0.806056314353363,0.702743133439611,0.655771001452945,0.701661601988318
-840,cane,12m,PC,Trial1,0.653780753378864,0.793400723408494,0.401467057341565,0.455562982765297,0.55964779388557,0.781703091282602,0.59103029707048,0.565891143396624,0.309749322715917,0.412828917749047,0.652168940824721,0.580097947053676,0.400587891335371,0.571745356345954,0.86363112804782,0.818036530805558,0.68846606700051,0.668274617723815,0.724554429358976
-830,cane,12m,PC,Trial1,0.66455755679041,0.782971411394475,0.397954581054738,0.44499626895921,0.559571911485901,0.777720427684239,0.596406154744181,0.576516995675796,0.321290653352901,0.411660460498138,0.639216512333813,0.556410030342119,0.388458671492558,0.554195608018984,0.861425355527063,0.825240657898678,0.674437772757973,0.679547911719461,0.747039980677451
-820,cane,12m,PC,Trial1,0.674410636203231,0.771648628368556,0.395974587722831,0.435773206760644,0.560388875390588,0.769036645076702,0.602017342263024,0.585109175058672,0.337190109805529,0.416659649108915,0.625575662940781,0.532569826329922,0.376222840148329,0.539815490403098,0.859082356197216,0.829246250972885,0.661155295695954,0.689131860378681,0.768845383457194
-810,cane,12m,PC,Trial1,0.684029309350061,0.760077386540185,0.39937301704724,0.428023309055669,0.561988527076813,0.758832018841381,0.606573439642612,0.59108479036732,0.35647802586079,0.434101956437028,0.611768679833136,0.509892710481552,0.362536908713462,0.530024127516954,0.855481400501221,0.828630614940851,0.649167140823875,0.697346133345659,0.789389836500147
-800,cane,12m,PC,Trial1,0.692528256271175,0.745293633728407,0.403643362016161,0.422030492948784,0.5682779321879,0.747622160646836,0.610277201592544,0.592455547299173,0.375226142301719,0.456605001035536,0.597441044327331,0.492206957709926,0.348104071070007,0.526838743593928,0.850076492076307,0.821935499623238,0.638894916351843,0.704439575579118,0.809551749652292
-790,cane,12m,PC,Trial1,0.698761136388759,0.728658952144351,0.409891806611288,0.417764366394211,0.575227620001964,0.735844279232416,0.612613830598036,0.589614098180897,0.393457620223731,0.478438391963931,0.581467290453689,0.478713294143612,0.336311190939357,0.528213471738436,0.842816275213361,0.809267361227846,0.629575475423845,0.710066062697294,0.828704095418551
-780,cane,12m,PC,Trial1,0.703533364824541,0.709811053155172,0.416990838259306,0.41479039570654,0.581673077928243,0.723946632278047,0.61279015696749,0.583637786150294,0.410767075297833,0.498636926048178,0.565538743199947,0.46926021647548,0.327844515250412,0.533337604313267,0.833964834006851,0.793854418163868,0.622832061485981,0.714899452621539,0.846102206031621
-770,cane,12m,PC,Trial1,0.707598207639711,0.68952764895918,0.425212514860785,0.412510610953302,0.58761321450376,0.712810908678973,0.607529223604352,0.573435071029578,0.426813392284264,0.517175882885123,0.549864288535035,0.465301776448517,0.321611079927114,0.541427313266792,0.823835012141017,0.777032745281755,0.6192682830853,0.718949546881086,0.86140922704854
-760,cane,12m,PC,Trial1,0.711155726486861,0.668792251767007,0.43359556962617,0.411139254254794,0.59349170101026,0.704071293864123,0.596806565412819,0.561063911599055,0.441527345839252,0.534181074466925,0.536345322344779,0.466498931392737,0.315577474901878,0.55165325645951,0.812778354618337,0.759898767036876,0.618988216760529,0.722058482631459,0.874529992370376
-750,cane,12m,PC,Trial1,0.714268806448272,0.648566159400325,0.441515781566404,0.410651804279584,0.599744158967789,0.697608066032624,0.584163696706491,0.550039319332208,0.45649808997508,0.549778468995164,0.528225748596779,0.472955984018001,0.309364695419472,0.562848800533415,0.801167559690223,0.744096209538572,0.62216560738271,0.722997410944545,0.885449197266655
-740,cane,12m,PC,Trial1,0.717016671855702,0.629640143688557,0.448394945915954,0.41079570661607,0.607562122738071,0.691424393659914,0.570346743603744,0.540812000844178,0.471999116656322,0.56404577270188,0.523858465010728,0.484178454243438,0.303128873967719,0.574112806367809,0.789390635408138,0.729927811858315,0.628551038765957,0.721339275152033,0.894194410811799
-730,cane,12m,PC,Trial1,0.719390147946534,0.61257247603916,0.451574149584011,0.410979229999269,0.618342334356887,0.684291630139179,0.555800559447856,0.531997496037803,0.487852363102617,0.576974547339987,0.522273403914447,0.498912951810668,0.297180121743134,0.585267264685616,0.777878092513042,0.717498644286987,0.637526523236689,0.719872148090632,0.900828815116578
-720,cane,12m,PC,Trial1,0.721073075070717,0.597917806983054,0.448901717905257,0.411111252101151,0.631166434077514,0.6730222263311,0.541039399905359,0.52206330564984,0.503896882860263,0.588395742995066,0.522215806455198,0.515366975040446,0.291705200659824,0.596852196652037,0.767138700628745,0.706874077590576,0.648510859465667,0.715478984432585,0.905455140409705
-710,cane,12m,PC,Trial1,0.721224650777473,0.584738925089822,0.443441427918475,0.40933237451451,0.64534805489974,0.658001172412056,0.52459053681616,0.510021935950155,0.519891849588225,0.598082909247903,0.522755067178725,0.531115185358753,0.286467411613719,0.609608437755136,0.757705581632641,0.697136783106318,0.661042762915642,0.70866213629947,0.908239879157415
-700,cane,12m,PC,Trial1,0.716731189294623,0.572089304240966,0.437449216427777,0.404869506052276,0.660371185894105,0.641548254041325,0.508860008221458,0.495591118099626,0.535504944863837,0.605299844841495,0.523089715043398,0.543431712081759,0.280806153158511,0.623330241109304,0.750032550422413,0.688442355670817,0.674744979990894,0.700765867339983,0.909307166212985
-690,cane,12m,PC,Trial1,0.70947935149628,0.560681406752457,0.430842276139837,0.39648268976864,0.675803800559405,0.624555103159808,0.494445882988184,0.47711384025441,0.549822793970478,0.609169464557519,0.521608569955508,0.55315506650152,0.274117465965304,0.637637254126077,0.745204836964486,0.680834205513064,0.689303537064324,0.693312044766447,0.908598030657601
-680,cane,12m,PC,Trial1,0.701191910628713,0.549286121640002,0.424002816063257,0.383922943245653,0.691384922704566,0.607354449047331,0.481158597840679,0.452991628326926,0.560895230510398,0.61185162828881,0.518530604358705,0.560254931648154,0.266270825256023,0.652235345735236,0.742971173805013,0.674464814550206,0.704405721854717,0.688128182051823,0.906858753047548
-670,cane,12m,PC,Trial1,0.692171957467808,0.537945634906419,0.417587834990894,0.367921447654952,0.707232812514239,0.590114695083289,0.468560255487118,0.426614666235025,0.568662100751938,0.613600413784671,0.515057526456162,0.564710980453388,0.257755794197568,0.66704451324192,0.742354675539273,0.669678478836426,0.719658517431036,0.68537171531769,0.904509074319873
-660,cane,12m,PC,Trial1,0.682644653951079,0.525709398332817,0.411791684984594,0.350566151910748,0.7232673457691,0.573004758335358,0.456366318785273,0.402204159133247,0.573575230144407,0.614848743317492,0.51100239340838,0.56664335007709,0.249718218811708,0.682043391802796,0.743174046364454,0.66718720681907,0.734740115729091,0.684212377826068,0.90167210567728
-650,cane,12m,PC,Trial1,0.672440143140647,0.511758115639354,0.406697356643818,0.333408469327508,0.7389571146971,0.556249493372929,0.444871669100688,0.380438393984476,0.576177843351685,0.615849292289474,0.506917721991039,0.566350220227403,0.24393347732483,0.697212327272718,0.74520906500513,0.668419285480465,0.749436844325567,0.683808234449509,0.898421634559278
-640,cane,12m,PC,Trial1,0.66071049458363,0.498801644064119,0.402379166810552,0.319461579027297,0.752546454364705,0.540125674801898,0.435602060816728,0.360956104210233,0.576451570069361,0.616779589093941,0.502985973293728,0.563314886661511,0.242109435295781,0.712457127435029,0.748195507181741,0.671886122447133,0.763417324262359,0.685252830786021,0.89481176167871
-630,cane,12m,PC,Trial1,0.652962755939263,0.4868965813332,0.398964367534467,0.313207335474146,0.763214620245933,0.524863014978941,0.430504714712853,0.342492475721217,0.574258832172606,0.617580549991812,0.499772442816497,0.557937996813558,0.245279335039863,0.727405558591305,0.751876802087342,0.676440933324924,0.776110332939451,0.68911751264611,0.890860497037212
-620,cane,12m,PC,Trial1,0.648608107413788,0.47585338099533,0.396723948660271,0.314531234921223,0.773080517047085,0.510490346405676,0.424265827541179,0.32722638525912,0.569247853062685,0.616936309758808,0.497732655751261,0.551505327808395,0.252252523615189,0.741207878817641,0.756043678277069,0.681464849045426,0.786486280188189,0.69475158334256,0.886524817898997
-610,cane,12m,PC,Trial1,0.645833699507397,0.463097807296012,0.396193865023614,0.321573979318312,0.782653000821277,0.496917322634775,0.417193294042884,0.315931635625298,0.560337775512325,0.61589060586718,0.497405152054079,0.544882080667986,0.261583155289632,0.751670199666238,0.760542233802536,0.685988776338386,0.794168594896839,0.701736067460531,0.881671055014284
-600,cane,12m,PC,Trial1,0.644850980964958,0.45231548626924,0.398549353859173,0.32989767252732,0.792079627262142,0.482776272405107,0.409197014058631,0.312824682743627,0.548425908976289,0.614087114534367,0.499343267191429,0.538531002439903,0.271035411448559,0.758300009875349,0.7652614098317,0.689326293593054,0.799433271514058,0.709353926605062,0.876075994002203
-590,cane,12m,PC,Trial1,0.646327392124939,0.443907261907991,0.40393544967126,0.337457755042584,0.801405458969215,0.466967651453469,0.400105783770328,0.318222966154682,0.53594487920486,0.610198485677829,0.504042255648549,0.532349746568214,0.281487981205096,0.761008726992181,0.770121063464007,0.691373407554999,0.802369919950442,0.716377924348559,0.868948347907514
-580,cane,12m,PC,Trial1,0.651025876767517,0.438333981413062,0.409922621329256,0.343405695677978,0.810546977644946,0.450871297181263,0.389500909244637,0.328486935414417,0.523916688674893,0.603949444448903,0.511443539972406,0.526154123938912,0.292971780866571,0.757865833776717,0.775068290071084,0.692821405301672,0.802939699088785,0.721136356547059,0.85961518713137
-570,cane,12m,PC,Trial1,0.65834371991652,0.435613121275046,0.415360297993527,0.34685989930891,0.819305672152644,0.436139279325237,0.378730162273328,0.34185033095396,0.513642866854146,0.595440193101274,0.522036262246293,0.522212118669165,0.305320618837944,0.751314638770155,0.780043741912361,0.692325768517533,0.801073206349831,0.722161941239301,0.84844326066626
-560,cane,12m,PC,Trial1,0.667130272181719,0.435966532528352,0.417886036157069,0.347425571872029,0.824929170128831,0.423884902293175,0.370862315656641,0.357239998905117,0.507381767850327,0.583653890173013,0.533956632040051,0.521310561079185,0.318574879038796,0.74299669926876,0.784815893255502,0.69064648209444,0.796777619708409,0.717936140432258,0.836159403485078
-550,cane,12m,PC,Trial1,0.676022273821782,0.439918110130329,0.415911885700597,0.346985758407256,0.827264704184912,0.414954349289536,0.362941744581276,0.374054561959602,0.5056189090593,0.567510709729323,0.54523827697304,0.524496869494176,0.329994217954665,0.733235148731004,0.788874829427553,0.686931500761847,0.790259206345666,0.71204321092434,0.824131747283028
-540,cane,12m,PC,Trial1,0.682934705513032,0.446667998515974,0.411530291024114,0.347084531312142,0.828158135164428,0.409601973611372,0.354074979501916,0.391631210971351,0.506979395486726,0.546029919897657,0.553597627384133,0.531510242436087,0.337688700141638,0.723529452203425,0.792109468292234,0.681769712050943,0.781885194032489,0.70497855724587,0.813499620623658
-530,cane,12m,PC,Trial1,0.684981102834083,0.454966734376014,0.404765386400627,0.347374412059267,0.82839272827155,0.407332473963863,0.345953945335949,0.406704270473341,0.509279055021989,0.521594192604376,0.557289283524215,0.541547476463616,0.339754062005692,0.71399513675365,0.794675786273557,0.673517579519995,0.772795926493492,0.696344962450086,0.805459331092588
-520,cane,12m,PC,Trial1,0.685109501978537,0.46385973850363,0.395562950351628,0.348620185978653,0.828428636726253,0.407032174758066,0.339054072958853,0.420660449333107,0.514901832607001,0.495325649034564,0.558162340707053,0.553082638870198,0.336602992697869,0.704918679840211,0.79638690986596,0.661393380853144,0.764734491073924,0.686319241382944,0.801614214206213
-510,cane,12m,PC,Trial1,0.683788036097976,0.472743104841095,0.386102436159994,0.351333092605709,0.82864191564652,0.406487823554421,0.33342414444039,0.432907300917227,0.524086059949119,0.467938965015974,0.556469827492483,0.56447615667437,0.334659251319731,0.696434505634855,0.796986102163489,0.644038233791006,0.755455888439874,0.674949689629392,0.800519715462371
-500,cane,12m,PC,Trial1,0.680950520372997,0.481257754853804,0.377684853955157,0.356019994693557,0.82936590979532,0.402875534263324,0.329242256114807,0.444691936391412,0.535203939403739,0.439749728549674,0.549821701560253,0.574539483065133,0.339909958188102,0.688550508053025,0.796821731746827,0.624696756162185,0.746333053765908,0.66219902963473,0.801506906013311
-490,cane,12m,PC,Trial1,0.67644145188527,0.489147618445421,0.371257428972033,0.36482953000055,0.830892103350341,0.393889148077582,0.327908649179573,0.451800587598833,0.546058982286703,0.410967950877931,0.537047797365307,0.582053536808791,0.348782736611912,0.681232004019622,0.795488329852292,0.605652347368523,0.737188808717298,0.648253073190385,0.803803088734643
-480,cane,12m,PC,Trial1,0.669738293760131,0.496157206076977,0.368277275047527,0.376548918786107,0.833467076675497,0.380854758357592,0.330750698313898,0.452683885534448,0.557248648207203,0.381834221542888,0.522847890754427,0.584392006376243,0.360364413470988,0.67446716507244,0.792043878635686,0.587603429021029,0.727489143831911,0.63360782959839,0.80751617174775
-470,cane,12m,PC,Trial1,0.659855277749982,0.5019160074488,0.368326328490427,0.386003993975769,0.837293696981813,0.365724272800996,0.336102147454368,0.450235595183031,0.568044916161449,0.352627450751311,0.510851206521362,0.581745915376216,0.373781940128125,0.668300277139433,0.786661883541482,0.570401450706746,0.71535678753172,0.619026656916733,0.811424365262587
-460,cane,12m,PC,Trial1,0.644295497198952,0.505698009960704,0.370594937033245,0.39152698743546,0.842492689281832,0.349599477008869,0.343917377687131,0.443370021365217,0.57911813931836,0.323714523211869,0.504835212406126,0.577490143629737,0.387892429197731,0.662837198503106,0.779482325847252,0.553801144048877,0.701788009842272,0.60500531939616,0.813504902665266
-450,cane,12m,PC,Trial1,0.625221900827657,0.506758553331463,0.376241296170699,0.391464544764897,0.848889235719993,0.333691633565524,0.354314122364203,0.434730368265599,0.593036818756728,0.295684712933867,0.505616985831215,0.572271314142008,0.401385020581087,0.658232352384307,0.770691826930396,0.537630704930246,0.688248525641099,0.593717820831091,0.815320440584305
-440,cane,12m,PC,Trial1,0.605834581973545,0.503297872146436,0.386533021930891,0.386766130942274,0.85804611955008,0.318879808544084,0.367177622396022,0.425405504619001,0.608338860004472,0.270342412052639,0.510793508827496,0.567191669909728,0.410540303164312,0.654664951539606,0.760488960093729,0.521467022746859,0.67494019869799,0.584426319911132,0.817034448506149
-430,cane,12m,PC,Trial1,0.586967420201347,0.49815205918225,0.398090677480131,0.379328443143828,0.870130813022927,0.305661626845978,0.380723557033752,0.414191601247176,0.620949531285396,0.24741699075519,0.519351973118452,0.563191901283635,0.415889152077145,0.652312167188648,0.74901627315047,0.506187478803607,0.662056504787655,0.576449909708514,0.818677024969523
-420,cane,12m,PC,Trial1,0.569769432454084,0.493755842631272,0.41093742802244,0.370047982060413,0.880760555930207,0.295138569519482,0.395089164675936,0.398705120180451,0.631410397569569,0.226468796955653,0.530353520507292,0.560632343887819,0.41934393608367,0.651315040173932,0.736343160183687,0.492455514267747,0.649761872353542,0.574114808773341,0.820167997027806
-410,cane,12m,PC,Trial1,0.554041348042682,0.492476770093334,0.425943230005337,0.359941059415001,0.888632481837904,0.289303872540514,0.409495357692626,0.382350415888868,0.639620312509198,0.207949165711716,0.543334516041223,0.558614433522435,0.422840151547377,0.651527450649987,0.722518221503299,0.480319417204982,0.637989832195592,0.578268958375443,0.821283801352363
-400,cane,12m,PC,Trial1,0.539639079719707,0.493872310731336,0.444902099960494,0.350186991583615,0.893942659555302,0.288615650114258,0.422423827535619,0.366709065370411,0.645416703561214,0.192436403630894,0.558513706766739,0.557477301249495,0.426787538598726,0.65229476284949,0.707643281674734,0.469733263862205,0.626542471226122,0.584777526069869,0.821633279343085
-390,cane,12m,PC,Trial1,0.526614901377387,0.496770649411477,0.465717543119688,0.341797605378173,0.896471208546002,0.292640294730452,0.431293515918787,0.352700170289358,0.64700370429215,0.180545337765167,0.577046015256862,0.557202941853031,0.429593966956326,0.655050855995735,0.691884073253801,0.460533290002814,0.615187492512291,0.592991632941015,0.820665657331063
-380,cane,12m,PC,Trial1,0.515188742445507,0.500386502319339,0.486020479081552,0.335620105550327,0.896402088536108,0.301058935256369,0.438326195955956,0.341371749035744,0.64443955928293,0.17843609192829,0.597953649773995,0.556083359003322,0.434299891309509,0.661050966982808,0.675446845186987,0.452488459460375,0.603668203892021,0.602486028555974,0.817778831801048
-370,cane,12m,PC,Trial1,0.505810081135481,0.504176205340104,0.506065643095312,0.332254089644952,0.893925629558601,0.314694820162148,0.443867045361959,0.332675129278575,0.639874244334924,0.185696672668296,0.619488065895051,0.553619808847868,0.441022388660407,0.669714534375265,0.658620480149258,0.444122967439259,0.591078912269568,0.612951226465679,0.810611178347913
-360,cane,12m,PC,Trial1,0.499156986753643,0.507853389546383,0.52530605930974,0.331684780793714,0.889132472696777,0.329363668117526,0.4474573515465,0.324730711066092,0.6328537203689,0.202200459019071,0.640250501341557,0.551086050792249,0.4484483733343,0.681081560581841,0.641899987123991,0.436197496866902,0.576217646673628,0.624025464618468,0.799935944959356
-350,cane,12m,PC,Trial1,0.49590249851308,0.511324746490168,0.542941031991847,0.332690672117058,0.881825969097112,0.342779305550279,0.448519460541998,0.315565749830518,0.621336578704914,0.226422637752763,0.655643205115421,0.546448339581342,0.456417217083187,0.693776973535587,0.626220724007662,0.427752856370918,0.560770408570609,0.632510025797042,0.786723012408008
-340,cane,12m,PC,Trial1,0.496322926250078,0.515275817129752,0.556369049837468,0.33498619356926,0.872728191179147,0.354441842245357,0.446131714315493,0.301471056156522,0.606157469129159,0.255255760138011,0.664729670349609,0.53961361130947,0.464710408468775,0.707208781058925,0.613687391502404,0.418646488425627,0.545854297774225,0.638402554080755,0.772055215938094
-330,cane,12m,PC,Trial1,0.500171882911505,0.518186292145446,0.565069050028323,0.336546731875736,0.862647346901839,0.364051980698211,0.437222305443922,0.283566162278277,0.590081378063503,0.286828388008963,0.665084463472803,0.531928280538459,0.471501527274039,0.720903153816567,0.606896139559621,0.408680698070788,0.532038137317006,0.639256177249925,0.756848827929118
-320,cane,12m,PC,Trial1,0.506860973021425,0.519249598331125,0.566985229463527,0.338938025004409,0.852371198008964,0.371609875855215,0.42337138924912,0.264072996036029,0.57546268070638,0.319427466912022,0.659180869180943,0.523054125560279,0.475490717366499,0.734154179258842,0.605709186012844,0.395621106181184,0.519679716135986,0.636997231281754,0.741619820244057
-310,cane,12m,PC,Trial1,0.51561161504511,0.516987658194212,0.563331375046457,0.343269522631334,0.842346519684031,0.37745498105538,0.411099608996015,0.245575389751548,0.563595180910128,0.350727931235527,0.649474412542895,0.51336986108116,0.474837488815342,0.746031794786941,0.609810595683175,0.382246084653427,0.508929937771453,0.632313546506747,0.726583267820041
-300,cane,12m,PC,Trial1,0.52464501445962,0.510522872196372,0.557230596878952,0.350407022815999,0.832745070636543,0.383097676220613,0.400213907305125,0.231056138827014,0.554751828174375,0.380464625057258,0.637911301828458,0.502514582046149,0.472110852678637,0.755443066839512,0.618131715610412,0.370808712932773,0.499784270647572,0.624826007775281,0.711794778621406
-290,cane,12m,PC,Trial1,0.53103725718006,0.500844517531503,0.550250415659011,0.361755487022125,0.823607817566554,0.391098553474582,0.389671969667412,0.221216284648782,0.548936886631101,0.407787597735512,0.625102994767911,0.491702670522085,0.468886292437419,0.76063179818613,0.628702851544522,0.361798918213532,0.492121986869639,0.613431783891818,0.697122421905922
-280,cane,12m,PC,Trial1,0.536816441705499,0.489099382988578,0.542879556736663,0.377077031045131,0.814867168079631,0.403338737020179,0.381706492659781,0.217157892863453,0.546618554773444,0.431556254193793,0.611858461000531,0.481144233335489,0.467631619019388,0.759131147463197,0.640768436278237,0.353345829889631,0.485755521869856,0.598069315596864,0.681870671257165
-270,cane,12m,PC,Trial1,0.541638740503166,0.479870676633096,0.535313778334938,0.393144267781003,0.806325773552495,0.416476090275442,0.377055529056441,0.216566692502537,0.548606736637359,0.448507872484386,0.599168675318203,0.47129199846208,0.468263374510278,0.752941467528604,0.653915722957071,0.347921690756397,0.480253122199256,0.580302685223775,0.667665454540406
-260,cane,12m,PC,Trial1,0.543760661857416,0.475839200725561,0.527691095435226,0.409463015763102,0.797602349292927,0.428976884413778,0.373494922130249,0.216952010650592,0.551804450771054,0.461100499651631,0.589351468199819,0.462774090615685,0.47024694793771,0.74175410308254,0.667492895123326,0.346740011070659,0.475310321793439,0.566820046922198,0.654539194610008
-250,cane,12m,PC,Trial1,0.5425810950033,0.474014019019103,0.520165045821522,0.425644439038175,0.78816809414722,0.43988443940525,0.370247699400462,0.218987317496415,0.554904069546956,0.470407280276221,0.580558694102938,0.456298990682768,0.473544758942335,0.724701109594201,0.681171039322764,0.34995405509511,0.471464203172775,0.558223687936744,0.642590874018797
-240,cane,12m,PC,Trial1,0.538045347885837,0.472508423132977,0.512917189174431,0.44113498573906,0.778111683361337,0.449169335156034,0.367271108005338,0.22244159469532,0.557078571273331,0.476795158544682,0.57362849623442,0.453172502285355,0.477987702832465,0.702845453144592,0.694762285916326,0.357069488717949,0.467986184476702,0.554413332042024,0.63184969900865
-230,cane,12m,PC,Trial1,0.532502719114067,0.469695422859618,0.506148108683847,0.455177647313511,0.768093414840393,0.457383039893362,0.364591798496964,0.22701183603449,0.55682019853419,0.477544530997969,0.568649810750514,0.455961211697514,0.483303934198917,0.677882381438021,0.708124582190551,0.368164010416766,0.464140005316793,0.554911885776288,0.622264630618611
-220,cane,12m,PC,Trial1,0.526753156128443,0.463849003549001,0.500144432723762,0.46751305750642,0.758552891928938,0.465348522216616,0.362579155915258,0.231352895147118,0.554122306120838,0.477663604747921,0.565612836049562,0.464462203434462,0.488999274621609,0.650544512146146,0.721144749051389,0.381968867556624,0.459851792345223,0.560107462793527,0.613779445220762
-210,cane,12m,PC,Trial1,0.522970412704007,0.454695573400756,0.495647623250553,0.476473897922976,0.749797266324133,0.474183637444965,0.362513114790614,0.234475006832033,0.550961522251156,0.476304179410976,0.564608646182254,0.478087492307033,0.494686120858465,0.623507876919311,0.733723908606413,0.396434471300319,0.454953854611344,0.567580259130535,0.606372098566254
-200,cane,12m,PC,Trial1,0.520806420001965,0.444860214415361,0.492928093629641,0.480213300106681,0.742103226668298,0.484874992928999,0.362802012525119,0.235966466939926,0.547974805934169,0.473467058352053,0.565747508008477,0.497516692337988,0.501517249047631,0.597230798734484,0.745708640477127,0.41015711567453,0.451481902186474,0.57657489312855,0.600062424697561
-190,cane,12m,PC,Trial1,0.519050114881199,0.435301823248487,0.492470326395568,0.480169010790488,0.735598984757484,0.497758779860676,0.361259890021609,0.236114194357819,0.54523891541211,0.469021194002519,0.568799293781018,0.520813046145294,0.507480511663572,0.571017545955621,0.755624858576545,0.422142384293687,0.44707920410796,0.586801443090962,0.594896687829825
-180,cane,12m,PC,Trial1,0.516699519154646,0.426827608212571,0.495097508126682,0.477488811262366,0.730167758341539,0.512404925589651,0.359717367567256,0.237696859762441,0.542810606190858,0.462751676391298,0.573646544500446,0.546577868640673,0.512382469614804,0.544237633876026,0.763518240559572,0.431123504884451,0.444663202395614,0.59693547251848,0.590908076890771
-170,cane,12m,PC,Trial1,0.516415695483218,0.420055491409109,0.499867290702945,0.473314885903213,0.725631531713978,0.527473911862845,0.360821197468071,0.242291671448955,0.540780685016704,0.454550180873483,0.580107565824713,0.573376351767485,0.515136478759134,0.51662032916387,0.771315380358871,0.435809538152794,0.442791485332064,0.605583643122099,0.588082772530382
-160,cane,12m,PC,Trial1,0.522128316282826,0.415523895770986,0.504970881329129,0.46750593736817,0.721991146038269,0.542919071683469,0.374024723834926,0.251477574443483,0.539287066841866,0.444350760026472,0.586373008467645,0.600162986603787,0.516001981148291,0.488952801878379,0.779558233100491,0.438603033055244,0.440504001273215,0.612138940715005,0.586313078589006
-150,cane,12m,PC,Trial1,0.531296756166108,0.413294644110226,0.510333094316947,0.460275048626437,0.719462803697736,0.556145482095569,0.396175768343268,0.266785810420348,0.538466285076431,0.432069982732163,0.592841948792763,0.625851266398288,0.515946386124414,0.460079278573326,0.788405887577676,0.440487244016802,0.440627664269162,0.61637239749701,0.585381794841278
-140,cane,12m,PC,Trial1,0.542434859253281,0.415004287345792,0.51548773429926,0.452498987989512,0.718307086421274,0.563133837280356,0.419840323370219,0.287711292089512,0.538421280323782,0.417490433416928,0.599214233416014,0.648958179969734,0.512354279257964,0.432168747287999,0.797600437813284,0.442128327162316,0.444696825544948,0.618139210932466,0.585412935160602
-130,cane,12m,PC,Trial1,0.554658497796061,0.420550307260545,0.518700569498444,0.445257254232036,0.718799736780304,0.562453860660039,0.442293406819193,0.31038633497731,0.539214789590268,0.400026427877025,0.605467578304484,0.667004489585085,0.505876492671617,0.402159707713346,0.806484358408022,0.444001833484334,0.452691241816634,0.617859686540603,0.585797228445988
-120,cane,12m,PC,Trial1,0.567472402764923,0.42879667694494,0.526120777657244,0.439759804225236,0.722156666089791,0.558102686800894,0.462520404082502,0.331926162996321,0.540857656327034,0.378078511594221,0.613651880989571,0.682361686031065,0.497058592681229,0.369729484750589,0.813614023302551,0.447092252434621,0.463839537020372,0.613809063148628,0.587670293848303
-110,cane,12m,PC,Trial1,0.580486016466608,0.438831707594999,0.538217017413561,0.437192844833757,0.729005013315802,0.551724993487842,0.479950453170346,0.353179863721518,0.543270337601688,0.351072697513194,0.622036438183121,0.697261717636495,0.48676284046319,0.336243457118782,0.819021013741327,0.45282136343594,0.476413218492148,0.608033547298733,0.591382274225609
-100,cane,12m,PC,Trial1,0.593282019995152,0.449885691945865,0.55109455731523,0.438467147362245,0.737367662469099,0.543696484806779,0.494190485422967,0.373364402866506,0.546199754058682,0.32093940136458,0.628223400841463,0.71190062748816,0.476156006381929,0.304385434930553,0.822834797522688,0.460752373181267,0.489665899326262,0.600911261403608,0.596402860887337
-90,cane,12m,PC,Trial1,0.605375618383826,0.461372585998138,0.564164162310552,0.443705668764679,0.746621260063461,0.533954543783252,0.505464410183346,0.392502713778533,0.548485923234189,0.290965405571837,0.632625102264571,0.726006314458482,0.467015854637678,0.276496585436431,0.824963547103665,0.467908948592831,0.50297449496113,0.593128638129883,0.602021378707455
-80,cane,12m,PC,Trial1,0.61620691078811,0.472912180835719,0.577408725505037,0.450362995944326,0.756112765146423,0.523206639948177,0.514574910699088,0.410830886584363,0.550751831686234,0.264287799905123,0.635136930573836,0.739175843070686,0.462245777965696,0.253592737475938,0.825274012481566,0.474687783051194,0.516311983405425,0.587287667594805,0.607518882218819
-70,cane,12m,PC,Trial1,0.625260529618682,0.484423839745912,0.59081195236628,0.456784816251052,0.765248880780451,0.512492433676001,0.522531388135723,0.430688322001659,0.55336027740018,0.244072895296002,0.636012269421339,0.749414809929234,0.460857439437279,0.23764304591343,0.823697197424627,0.481550267991604,0.529574037648683,0.585167727273533,0.612129992268942
-60,cane,12m,PC,Trial1,0.632215380017475,0.495949796376425,0.604338047972147,0.462014070848744,0.773247198648096,0.502436679804182,0.530093102043301,0.45195868205982,0.555790496137831,0.234776355830818,0.636150629324849,0.754580294646776,0.462179378056149,0.232039525848642,0.820360798403973,0.488113314062021,0.540717616975007,0.586837978684983,0.613934824634558
-50,cane,12m,PC,Trial1,0.636826177546834,0.507427559200151,0.61802895726874,0.465227421094694,0.779265699913392,0.493432269428075,0.537543948207404,0.47166368372042,0.55696584567421,0.233253238175015,0.637227403567432,0.756771111595953,0.465920004492996,0.2314603162567,0.815479727648153,0.493976753008273,0.549674118569739,0.590662485818137,0.612560418901153
-40,cane,12m,PC,Trial1,0.63838290063218,0.518748326816899,0.631764561728162,0.466164967023406,0.783673692364272,0.485695916044838,0.544086697398459,0.488829086574872,0.554344689188155,0.238523081434167,0.638889481832893,0.757045718637807,0.471753058080639,0.23179801673971,0.809262183736374,0.497205526606873,0.556704969860026,0.591813961796283,0.608629981833561
-30,cane,12m,PC,Trial1,0.636003921181171,0.529791346232706,0.645247221586693,0.4649542776563,0.786938653412031,0.4793199806144,0.549508705672123,0.500964868107088,0.549204297471312,0.249838199630242,0.643910723820933,0.756021250785052,0.479906500700008,0.231470997344619,0.802142155557531,0.496969780770202,0.560611002176027,0.591089878121662,0.601691548586741
-20,cane,12m,PC,Trial1,0.631726261211358,0.540392796587129,0.658128138060738,0.461490600665591,0.789189192830861,0.474352807828209,0.553830454148061,0.506513725724895,0.541641891985559,0.266437337559721,0.654033337023743,0.754455836773783,0.492331546691503,0.231884049776451,0.793740395846993,0.49320636024251,0.562606187049677,0.584775665185679,0.589724800795579
-10,cane,12m,PC,Trial1,0.627437911732037,0.550282041059152,0.670066925541029,0.456370805009626,0.790434133503813,0.470914106280066,0.557108291999229,0.507968816705556,0.534160196435415,0.287538113671872,0.665780828899653,0.753432487948716,0.509437906630026,0.234158406447185,0.784938116264447,0.488149132581797,0.564197190899829,0.574366450412035,0.573335452615122
0,cane,12m,PC,Trial1,0.623703880281089,0.559031213949041,0.68081111094138,0.450236720688945,0.790641984162698,0.469308613934765,0.558903325266142,0.510240519328203,0.527740404230254,0.312278338342744,0.678050710846859,0.752851808882473,0.528951293330288,0.236865512549624,0.776056028143138,0.482177492958481,0.565797912245281,0.561066102088201,0.556190960511122
10,cane,12m,PC,Trial1,0.620631647911196,0.566126455045239,0.690216581675273,0.44455909687023,0.789761101536521,0.470053536262593,0.559528063641234,0.515428491919207,0.522538371490239,0.339676575617969,0.690093654081706,0.752397991921932,0.55001613314302,0.240296920035827,0.766506278523207,0.476093514263597,0.56772623567425,0.545851984680626,0.540099004086156
20,cane,12m,PC,Trial1,0.618250725339594,0.571289473298143,0.69814918682442,0.438859407643165,0.78772001447337,0.473838894386762,0.555610231253275,0.52204259045331,0.520840028129997,0.368620199423924,0.70138533109731,0.752109664830268,0.571888506896317,0.245863350976211,0.756302836136624,0.470476389068008,0.570108563557901,0.529344197003738,0.527868740256912
30,cane,12m,PC,Trial1,0.616623771964112,0.574696438580704,0.704903247511432,0.432626972422296,0.784418746482031,0.481204417367861,0.548532362379825,0.529622117832289,0.52524483964791,0.397841350252437,0.711720705819861,0.751651908228891,0.593796022382472,0.254271126400761,0.744283939844497,0.465469340442818,0.572866809221044,0.511945536380386,0.518083947984538
40,cane,12m,PC,Trial1,0.615860600723303,0.576787240264133,0.707088235426126,0.427165211885321,0.779715950755842,0.493254847771193,0.537965341340471,0.538229248403728,0.53606828254553,0.425737596839372,0.721125824047224,0.7509250728758,0.61472417551827,0.26442883132879,0.730024511275577,0.460980176073773,0.575745721996561,0.494035450889075,0.50979885448121
50,cane,12m,PC,Trial1,0.616093655372441,0.578109789997707,0.708890058179771,0.425050367964852,0.773419799022923,0.508151152928646,0.521490525030188,0.547839457480228,0.551102330336826,0.448750054324704,0.729705278445711,0.750050563011783,0.633429508775737,0.277875139812381,0.712622283469428,0.456743524114433,0.578355996131663,0.476079338241925,0.503034381064336
60,cane,12m,PC,Trial1,0.617415430118241,0.579675622823827,0.712734238850979,0.426797357253324,0.765314018206008,0.523840306204876,0.504624050012752,0.558061884398014,0.568810170353904,0.469311207229996,0.737585343088349,0.749283103863571,0.646400736956387,0.294605001592507,0.693804550211947,0.452728321889352,0.580228797171427,0.458666123943298,0.498280718879614
70,cane,12m,PC,Trial1,0.619560077858411,0.580852019019204,0.717127582130446,0.432110093851258,0.755289794427838,0.538546210654347,0.48826359623909,0.568556218326324,0.584678602036664,0.488458763007738,0.74487172048358,0.74876703599686,0.650983982567964,0.313193240105058,0.674132972332032,0.449830695149854,0.580878636254688,0.443268099226169,0.497234459518708
80,cane,12m,PC,Trial1,0.622541596756047,0.580669776459349,0.720808061233999,0.441097694681522,0.743445633913687,0.552045003579816,0.473250301478075,0.579155411657281,0.59839055046684,0.506775920578999,0.751588712899638,0.747893803224098,0.650693113014509,0.333166421569212,0.654215051986161,0.448461138511248,0.579869108294109,0.434370682357586,0.499540829509217
90,cane,12m,PC,Trial1,0.626368406971446,0.579937635705914,0.72423831527929,0.453352338486992,0.729859230840411,0.564976771158694,0.460814988808442,0.589894594854368,0.611629218565431,0.524316052257452,0.757638618938616,0.744391971942447,0.647941243108413,0.354395455675538,0.63455280489824,0.449947758543702,0.576871670265173,0.429310789034051,0.504256275729749
100,cane,12m,PC,Trial1,0.632336545153178,0.57848283534482,0.726727741194729,0.468309790027775,0.714551587523972,0.575746057106929,0.451884427717566,0.600404721814996,0.624828342498498,0.540189642438193,0.762799049255451,0.739750204393831,0.64097533859,0.376786126906405,0.615466655454358,0.453312619068561,0.571772301021403,0.426879588329163,0.511362464536471
110,cane,12m,PC,Trial1,0.641653469824337,0.574029965020033,0.727098311650524,0.485442998416951,0.697659338805457,0.584265038743281,0.446119002625269,0.609988593124421,0.637812925793134,0.552577474459572,0.766823983379661,0.735092574882173,0.632740191455706,0.400162728455258,0.597127124448535,0.459194210275194,0.564303520413586,0.42498220478381,0.520502769984931
120,cane,12m,PC,Trial1,0.655594191967693,0.564977940136922,0.722436714885463,0.503832368295848,0.679430188995078,0.590486763128213,0.447631136574001,0.618191271837294,0.650506409754731,0.562286581703406,0.767809887306688,0.731126215393323,0.624748150675548,0.424277268205433,0.579616858203463,0.467690657269015,0.554562662496099,0.422246895120906,0.530980946489228
130,cane,12m,PC,Trial1,0.671106943267916,0.552291151458525,0.7110758233936,0.522053292668972,0.660105205140425,0.594533944365856,0.455476913842247,0.625037456393834,0.663086268627837,0.569596192016163,0.767194563914608,0.728091158288161,0.617018052314888,0.448858887036976,0.562983697278519,0.479180091638799,0.544988612875023,0.421514492001487,0.541891320438029
140,cane,12m,PC,Trial1,0.688640692143511,0.537877557853983,0.697221093013598,0.537871604853837,0.639779273548017,0.596504524712468,0.464785262175324,0.631869722344683,0.675951333859031,0.575166469238269,0.765212793544531,0.725735573416328,0.610447342441208,0.473647441222062,0.547283512797969,0.489253883926988,0.538160891936948,0.424766330099949,0.552234059419218
150,cane,12m,PC,Trial1,0.708015848683821,0.523146604635885,0.681918708960568,0.547334810799671,0.618242005483464,0.595490895927246,0.475828795482222,0.639566483393679,0.688450297719054,0.579906636001556,0.762425044298481,0.723751751234838,0.607077231176785,0.498373651304231,0.532611134408839,0.498442393812066,0.535525155394589,0.428535837177964,0.560913540427033
160,cane,12m,PC,Trial1,0.728026944225271,0.509464942934718,0.665944031823388,0.552512082858129,0.595217500369986,0.591029437044161,0.488017245585785,0.645342076354381,0.699181867214861,0.584788452344512,0.759311367236168,0.722886934691305,0.608407908021941,0.522706510415826,0.519012143857213,0.505894716034815,0.538062193117328,0.429544100770116,0.566821743368679
170,cane,12m,PC,Trial1,0.748400225792895,0.49556067074265,0.649691778375314,0.554286106464776,0.571047797824773,0.584705641217926,0.50244598993996,0.645487923030109,0.705920326157593,0.590626172686183,0.756098171167206,0.72551114145541,0.611289255173592,0.546146509335764,0.506844116238284,0.511334055098024,0.54429347970658,0.427944401095973,0.568949496882141
180,cane,12m,PC,Trial1,0.768164253893118,0.480422745514888,0.633449154540208,0.553591008686839,0.545605244322633,0.577439754515716,0.520073497660599,0.641186315585058,0.71130580655337,0.598022163391515,0.754431637791097,0.730309668517469,0.613120941180481,0.567102491816837,0.496727519299648,0.514830494295881,0.554271874473998,0.42571739917036,0.566441820519134
190,cane,12m,PC,Trial1,0.783362303530486,0.463271291427319,0.61748018226062,0.551183068146899,0.518199317336926,0.569984121560468,0.539127305755265,0.633617864432179,0.715938885735369,0.60592026711685,0.753730039428755,0.735322424828343,0.613016133978685,0.582565490289949,0.488725384686258,0.5165666179117,0.567824215608042,0.420468478788589,0.558711986617362
200,cane,12m,PC,Trial1,0.794539159618723,0.444763826729962,0.602095171831237,0.547811315974475,0.490392472897592,0.562820077979686,0.55716174173583,0.6237734372352,0.719806619862334,0.614558187008004,0.752747723743363,0.739422268908145,0.610983992859442,0.593273199477105,0.483331432202477,0.516795990850613,0.584599150084675,0.412779188971736,0.545567359303696
210,cane,12m,PC,Trial1,0.800425950302707,0.426020520248264,0.587795229589397,0.544303503555863,0.462761907215867,0.556392229445957,0.569601113601114,0.613202497766695,0.722294820081557,0.624412380762596,0.751441999935372,0.741012590288678,0.606131762335814,0.599181018609454,0.480419843346597,0.514661911121162,0.604008145209184,0.403113731409592,0.528433636474204
220,cane,12m,PC,Trial1,0.80298111520326,0.407930246992595,0.57533794341139,0.542671817442505,0.435835204983254,0.550830775246372,0.577296135884274,0.604176651872093,0.720898141388614,0.634588643880191,0.749574707075664,0.737761490115497,0.597304666198409,0.602671213265503,0.480208262907799,0.511048476742458,0.625235380438964,0.393261736913327,0.511314659122901
230,cane,12m,PC,Trial1,0.804116660372373,0.391198322626107,0.565302735935892,0.541028630400352,0.409964680568809,0.545730052341932,0.581902505418786,0.596936400010793,0.717082476053489,0.643617282794298,0.747483661589165,0.732485532422278,0.585337259413648,0.604332204809984,0.483000781746049,0.506852446047154,0.647347653866215,0.383351075234821,0.49514244750336
240,cane,12m,PC,Trial1,0.806047787126741,0.376502498026762,0.558599127793206,0.537405004393555,0.385217194218127,0.540418793219905,0.583690362158429,0.590640741583261,0.711905437089324,0.649444417751418,0.746301395915671,0.72433862992501,0.570745892473269,0.60549130642811,0.489322886991849,0.501764777971447,0.669471377488342,0.374476809887847,0.480867188532173
250,cane,12m,PC,Trial1,0.810214949500291,0.364642182032229,0.557669658332877,0.532608378660815,0.362186057355684,0.535076966373146,0.582684921282361,0.58463568363552,0.70538680157193,0.653529394134665,0.74666334797003,0.713809684664489,0.553921069157036,0.60394774648966,0.496919401814144,0.495535102740386,0.690948561072971,0.367358377584492,0.469014882866635
260,cane,12m,PC,Trial1,0.815748687699746,0.357936338480762,0.561520300747666,0.52710916943829,0.34249855208429,0.529594935332088,0.581272897447945,0.578053180822567,0.697535215333216,0.656376911902902,0.748931401350336,0.701658718252065,0.535666220843284,0.600090642213496,0.506100318468248,0.488059679755301,0.711380387294373,0.36233569779589,0.460072188621657
270,cane,12m,PC,Trial1,0.82033455189226,0.355304230026704,0.570970098183941,0.521417261423554,0.328090477597615,0.524968445867975,0.581170038281057,0.569306949784495,0.688456399495743,0.655658127261441,0.753354111489516,0.688742870819035,0.517019867670078,0.595662447765218,0.516787890215335,0.476401683649642,0.730597604021236,0.35949978661466,0.45448295860575
280,cane,12m,PC,Trial1,0.820914200551627,0.356474711354165,0.585244123403441,0.516326169764833,0.320409708635137,0.523597350135076,0.579316209528482,0.55668964492741,0.678996153142468,0.653983358462832,0.760101265142068,0.675176665880784,0.498961138777672,0.591116710957407,0.528342923300646,0.46273056322384,0.748604928297739,0.357626001092839,0.449854575512876
290,cane,12m,PC,Trial1,0.814750707436439,0.362391463968869,0.601123764160633,0.512314015640268,0.31909778909072,0.52446045713975,0.577001739842949,0.541318571229852,0.671549110510947,0.651007372366936,0.769205286447772,0.660929688056326,0.483784986487857,0.586584377251851,0.540216897619348,0.448324853299884,0.765481852401533,0.359756006909013,0.445010079632766
300,cane,12m,PC,Trial1,0.804058949044964,0.373565234234244,0.616182389563089,0.509423212249464,0.322530442525045,0.530101907608222,0.573751004343294,0.524200332895853,0.665514786388833,0.646313371730872,0.780225112444043,0.646344339530771,0.472321969152461,0.58222842765964,0.552177936367869,0.434550071490822,0.78126761491614,0.370103997311033,0.439323938418835
310,cane,12m,PC,Trial1,0.790783029814247,0.388502723279642,0.626449700254889,0.507310273680888,0.328938434287367,0.539472416737248,0.570252685689706,0.505466747327547,0.660510488206804,0.639589067002468,0.792384894494173,0.631957650985996,0.462821364617,0.578269490634736,0.564270385333015,0.423165154266843,0.796117250191363,0.384117599153447,0.4318945337776
320,cane,12m,PC,Trial1,0.776195999713898,0.405531365611969,0.632247525730347,0.505493833527639,0.337383361571071,0.550354602408381,0.566879430514652,0.485388681022759,0.656678364541116,0.630854609768661,0.80526528492361,0.618319242197363,0.454777354533705,0.574958652528737,0.576611834442184,0.414437932661791,0.809692181210425,0.399443691190052,0.422914746910643
330,cane,12m,PC,Trial1,0.761093654387584,0.420886921159532,0.635487193652035,0.505490700460683,0.347539584621213,0.564267358321739,0.563718524167331,0.463642005648271,0.654114113986797,0.620577862089358,0.81850027637076,0.605921433530435,0.448339001664056,0.572545429891072,0.589363293600365,0.407545534106327,0.820909738866454,0.415800517292791,0.411577441620666
340,cane,12m,PC,Trial1,0.745660796680605,0.432711535853436,0.636407952146527,0.507279012204739,0.35808316695604,0.581621785396788,0.560784586695511,0.443594606023111,0.652896519835201,0.60938907248287,0.831430585369021,0.595220434408128,0.442740137120259,0.571253490162967,0.603040821322775,0.40236389828805,0.829939009412911,0.432928289382465,0.397206727894471
350,cane,12m,PC,Trial1,0.72973500800307,0.444710540140222,0.636124890106696,0.512351821027702,0.369114341501426,0.600220642978623,0.557923561293898,0.428648767715683,0.653221819711762,0.598063514162834,0.842737936875639,0.586701687840965,0.438007372960865,0.571291986667218,0.61626282899468,0.398795683672673,0.835463106901581,0.450965638172409,0.38113153629888
360,cane,12m,PC,Trial1,0.713477483544914,0.459732895724478,0.633005788882987,0.521823966525597,0.381899465065334,0.619650629238739,0.55475561264055,0.419814973412578,0.655423640670295,0.587511646907568,0.849681421476771,0.580839780370631,0.434961864940317,0.573026320746065,0.627571579959237,0.396577022528086,0.836892845836692,0.469682946320512,0.362635413127708
370,cane,12m,PC,Trial1,0.697562540196991,0.477390891399435,0.627059683328611,0.533543084508075,0.396424660533822,0.638003284474245,0.553560327053031,0.417211621191498,0.65990388075608,0.578966041280826,0.851000988935306,0.577978510502737,0.433764448445883,0.577799970579763,0.637867588909835,0.395164891468307,0.835724890695034,0.487771635007688,0.342084253043122
380,cane,12m,PC,Trial1,0.682545581415312,0.496527910573957,0.619498288185135,0.547209864880008,0.412661686777637,0.655713715336064,0.556945394089553,0.42024465581458,0.666909153087083,0.573826457060717,0.850767658723698,0.576332132110114,0.433569866620607,0.585561302992224,0.647929939003658,0.394477099210333,0.832072587705496,0.505565378625828,0.321865224482963
390,cane,12m,PC,Trial1,0.668662151929544,0.515978780795381,0.611046473958749,0.562795977054672,0.43014333508147,0.672977236332289,0.560474451172645,0.427516864544767,0.675846046241715,0.57119292072745,0.851609104493862,0.574305389352992,0.434018302839859,0.59288947858812,0.657995134962301,0.394830998153419,0.827572673420729,0.522154966172646,0.3047141072184
400,cane,12m,PC,Trial1,0.655918101487429,0.534696251746417,0.601874598832191,0.58021060393761,0.448695277813903,0.689804769561989,0.563707689976006,0.437750085956955,0.68590203030757,0.569527732339726,0.851795216335847,0.571063432971735,0.434962269971711,0.59873930608768,0.668277844796997,0.396825763003224,0.823087945806204,0.536153358745727,0.290348610751839
410,cane,12m,PC,Trial1,0.644245689790242,0.551793735685171,0.591876502004354,0.599417743430876,0.468235192536532,0.706180257321272,0.566205201573498,0.449811776498781,0.697598199967436,0.567904916888779,0.849069666680526,0.565827839520173,0.436342880430881,0.601500618142931,0.678718218406598,0.398187739090266,0.819061599883304,0.545745479107809,0.28000970365391
420,cane,12m,PC,Trial1,0.633952830963028,0.566709015839045,0.580987504907279,0.61952012385186,0.488580834151791,0.722094940623436,0.567928801501998,0.462660634198225,0.710825321511844,0.566256197663621,0.842769861848531,0.557676093126377,0.438107850825847,0.603362632369454,0.690110697873796,0.398459769048374,0.815723330822555,0.551520618932643,0.271382486421264
430,cane,12m,PC,Trial1,0.625254789510501,0.578805486273119,0.569202946526244,0.639559410213116,0.509508799700082,0.737557097942374,0.565733970407576,0.475530465218419,0.725182360869642,0.564736882111295,0.834118798729152,0.546439442432557,0.440133155210015,0.604495692240143,0.703249886921055,0.396336910650589,0.812982505077938,0.55320471333935,0.261595010181689
440,cane,12m,PC,Trial1,0.617677001494588,0.586066531148949,0.556557738400161,0.659198043626181,0.530718920006154,0.75258641296973,0.560724110016708,0.488087597547964,0.737721408185163,0.563572902670856,0.825533417668224,0.53121886940335,0.442046122033478,0.607653487836362,0.717926891911191,0.390384601504153,0.809194021834654,0.547324514725789,0.258206535844402
450,cane,12m,PC,Trial1,0.610354428355165,0.589800452895014,0.543040755605459,0.674952929552848,0.551037702137319,0.767189631164569,0.554803699092744,0.500708479176673,0.748173124011423,0.562867135753908,0.816367994203508,0.514620828393157,0.443014488447083,0.615634735859257,0.734031731939124,0.381705045587475,0.802298834610895,0.535413891491767,0.259082409373944
460,cane,12m,PC,Trial1,0.601918717878178,0.591793835309448,0.52822485869362,0.685307137633491,0.570685689414982,0.781306585920147,0.549706408007112,0.51428904296532,0.759057305022529,0.563020181238756,0.807488209664201,0.497189748180907,0.443129836325745,0.626240192147885,0.749521600960293,0.370803211710492,0.791400594173323,0.519585437339022,0.261271161750077
470,cane,12m,PC,Trial1,0.59327242209237,0.592386109427991,0.513030917039818,0.692869941708938,0.588957317955304,0.794644529681509,0.546616061928937,0.527502679636491,0.769752180367471,0.566030673981805,0.797747612173654,0.479500908235044,0.443363429081477,0.638606647313114,0.763790262720841,0.358846809627125,0.775537351025599,0.50107474244993,0.264998928185857
480,cane,12m,PC,Trial1,0.585295745882292,0.592364943747675,0.50109020575799,0.69769167320296,0.604933036686988,0.805113903956695,0.545375610233103,0.534820010551798,0.779157115089215,0.570751345945339,0.785943162372687,0.461514158074437,0.444827037427944,0.65222662321795,0.775135597124485,0.347043626595236,0.753563554093028,0.481921052336602,0.270118274306813
490,cane,12m,PC,Trial1,0.578388403045654,0.590788286570247,0.495624695816827,0.69928069638864,0.618148228422414,0.811179547512848,0.543802995736993,0.53907541928122,0.78551819156288,0.577315119694737,0.773570542781143,0.443016299227954,0.446646563228333,0.666383524319405,0.781106394089628,0.339706708899964,0.728730255644219,0.463906714005044,0.276300858752087
500,cane,12m,PC,Trial1,0.572787462992832,0.586902808121714,0.491225375237442,0.697648014790177,0.62773292195951,0.813552620204763,0.540410575919674,0.540731288055669,0.786557485095967,0.585321775778381,0.760510425649539,0.424483514885687,0.447033639071484,0.68085110503795,0.782451177796557,0.338144407713263,0.703960427015115,0.448058410920571,0.282606422691786
510,cane,12m,PC,Trial1,0.568546521164841,0.57796990572897,0.483149342806724,0.692756286901703,0.631148972724275,0.815842533650135,0.53479944180637,0.540493502852674,0.783949829335381,0.594509582467014,0.746870207202979,0.407019299459091,0.446496665780138,0.697883887565489,0.779386753437668,0.343200778462938,0.680145716735341,0.435704320530539,0.291840593235416
520,cane,12m,PC,Trial1,0.565278454461321,0.56583868526692,0.473531901090448,0.684344771475836,0.630404777155626,0.817545117910475,0.52975391906231,0.538928459732737,0.778343403098955,0.60465716988822,0.732745339450685,0.392334553157174,0.44473879269393,0.716236744213765,0.771756196700277,0.352493652963327,0.657602795480244,0.428348448563677,0.304982436500643
530,cane,12m,PC,Trial1,0.562307822415816,0.550436676793208,0.464582589754426,0.673924256401909,0.625289691154049,0.81728542977835,0.524669755113375,0.536387231687633,0.770961958743414,0.61553954708213,0.718089751426597,0.382295552997215,0.441547794148676,0.735595463909745,0.759533698682468,0.363795714635999,0.636549508526088,0.426351110711934,0.321140780405803
540,cane,12m,PC,Trial1,0.559971385850643,0.532435312009573,0.456467174661604,0.662067538274156,0.616081207654643,0.81418225646376,0.516466063198297,0.53309159768109,0.761779889006822,0.626893155113282,0.702158173005859,0.37730627555602,0.435971998758729,0.755438602174691,0.744682989439795,0.375925393417178,0.617233873625667,0.426258306870979,0.339609796734858
550,cane,12m,PC,Trial1,0.557118452127373,0.513855258897248,0.447458507127298,0.648905710381658,0.603184851959053,0.808223158849733,0.506975882960761,0.529186152476501,0.751690844618304,0.638381981138169,0.681736674220894,0.377840215919274,0.430549193022992,0.774555160242314,0.72846785245434,0.386177305522989,0.599989060370336,0.426622498678674,0.359926363639275
560,cane,12m,PC,Trial1,0.552572640981107,0.497826391272563,0.438533922865405,0.634530048876173,0.587015316761754,0.800641282219126,0.496415639917051,0.52476245428503,0.741379605659361,0.649521019140807,0.657694238069173,0.381895730186278,0.425497621822806,0.793363100723281,0.712060624019722,0.392472357643721,0.585145938918615,0.424875477062257,0.381786321855019
570,cane,12m,PC,Trial1,0.546858655607764,0.486854874887456,0.432308197337843,0.619007022582311,0.567951844351305,0.79179637037989,0.48520855430541,0.519578495274262,0.731417457677847,0.659578794274603,0.631981101680864,0.388525685133675,0.421415763445868,0.811743895428099,0.696340081164564,0.397580292014559,0.572827597055674,0.421433142651606,0.404991131927028
580,cane,12m,PC,Trial1,0.538824976249057,0.479363622209415,0.429948809400241,0.602379854284199,0.546308578621772,0.782310561635195,0.47363750486645,0.513508294461523,0.722351299920074,0.6681609717811,0.605697393126173,0.397017490293777,0.419233378042752,0.829315912329853,0.681810605621189,0.402470757511466,0.562896956696298,0.416497868513437,0.429355127459691
590,cane,12m,PC,Trial1,0.527243427159775,0.473821850277525,0.432430140355161,0.584678124096615,0.522319333684476,0.773464873727145,0.461867352403971,0.506730214630287,0.714657777716973,0.676063783130038,0.579515087505086,0.406881381549944,0.417091084058495,0.845763247030406,0.668704942420115,0.407658640635874,0.555149364012219,0.409968664069796,0.454244004397018
600,cane,12m,PC,Trial1,0.514653234926752,0.469655326486887,0.440587374209863,0.56587417201456,0.496175025752859,0.766344672531395,0.449950901966925,0.498163084137812,0.70871130426808,0.683003932813529,0.553995654157824,0.417596107846712,0.413776684475977,0.861273913946634,0.657088952308278,0.413212703248317,0.549300813683264,0.401439038076944,0.479630443772991
610,cane,12m,PC,Trial1,0.502782046364501,0.466615489681786,0.453683702279368,0.54616812119522,0.468254191148268,0.762332501462958,0.437972784275859,0.484583890924728,0.70477713190021,0.689156525217463,0.529676519738303,0.427997065139471,0.410788300553497,0.874039937740439,0.646920129622303,0.417616745773991,0.544893302773838,0.390212213286191,0.505273494957293
620,cane,12m,PC,Trial1,0.493542929792505,0.464772419172464,0.469498713744949,0.524754566903034,0.439233954824251,0.762243315737614,0.42643206827098,0.466472658361575,0.703030482876544,0.694718501151449,0.507058222549263,0.433273791922309,0.408390973392594,0.880776139709816,0.638065736737203,0.420031022920296,0.541087238851609,0.375011765027527,0.526582446106416
630,cane,12m,PC,Trial1,0.487929787214902,0.4639215064706,0.485701075306226,0.504822556058875,0.409871840081785,0.764432693799702,0.416531474137387,0.44617303056044,0.703575180413037,0.698948107998013,0.486566692083616,0.435346845223148,0.406639339230629,0.883994201999308,0.630297581753947,0.422254029303808,0.535898436602745,0.359481019172475,0.543190341490276
640,cane,12m,PC,Trial1,0.484272466045229,0.463510645599638,0.501585641762797,0.487837856156008,0.381082787139507,0.767863763151152,0.409595857428782,0.425504675586846,0.70641804368503,0.699816449473938,0.46852143152754,0.435754711995506,0.405560928142001,0.885057718104166,0.623285904159947,0.424991437942511,0.529664861987613,0.346192327608248,0.554719880890963
650,cane,12m,PC,Trial1,0.480288929355888,0.464584493996953,0.514578394079227,0.474434699676692,0.354893807076728,0.771844791306496,0.405862869434889,0.405647773140555,0.711525729295995,0.700528075461553,0.453111490426786,0.436093069125567,0.405068525251152,0.884508073641932,0.616612586676377,0.42860166597132,0.522317043096388,0.337479495150966,0.561790310801179
660,cane,12m,PC,Trial1,0.47651554925888,0.467457642288213,0.523818727381527,0.46394781044603,0.334464606406674,0.775767543087499,0.404969569371161,0.386857275148319,0.719082928967347,0.701234433004178,0.440373685981376,0.437611385496407,0.40489388462323,0.882787562374894,0.609792216295764,0.433104904121484,0.514867844428912,0.333331262080671,0.565574578986403
670,cane,12m,PC,Trial1,0.47372568713152,0.472041943770428,0.528761118079875,0.453995608581268,0.320110063219978,0.779034149844389,0.407313957363908,0.369088154831042,0.729358663692456,0.701072725936372,0.43017295957876,0.441137366406151,0.404367214136464,0.880308167696728,0.602275911353717,0.438158401635628,0.508201265778723,0.333778926700921,0.567551281668624
680,cane,12m,PC,Trial1,0.473764361885978,0.47739224596915,0.530824924447603,0.442728693208164,0.310184182745239,0.781125034999442,0.413034641661678,0.352220805276854,0.742414217247305,0.700315824256084,0.422185447736878,0.445652704460205,0.403133448854534,0.877457946867693,0.592582767030448,0.442922739928696,0.502592503757377,0.338872720944677,0.569027115757371
690,cane,12m,PC,Trial1,0.473778862955479,0.479429443398676,0.530691233658793,0.430350847965994,0.303846646855001,0.781707339390858,0.420481035200314,0.336105272704308,0.758043099647218,0.699228201266699,0.415771845635122,0.452045115327557,0.40066166242204,0.874583108825713,0.580315639491154,0.445233544439966,0.49725478410156,0.3487026759727,0.57042330504297
700,cane,12m,PC,Trial1,0.471544506949249,0.478448901716066,0.529054794068808,0.416739197199134,0.300911959754106,0.780688772742464,0.425538451635962,0.320602532893873,0.775792949737353,0.69827067584284,0.410753833660011,0.458422679952836,0.398011537972942,0.871960481324229,0.567312981127041,0.444187318728424,0.491991162557125,0.363073566749531,0.57116931283029
710,cane,12m,PC,Trial1,0.468173930394343,0.474377453202119,0.526436747977064,0.400661680387636,0.301384708500075,0.778194821321106,0.426794667711357,0.305988184683845,0.794941145796501,0.698149787808892,0.408634554898616,0.464369451052663,0.396454494117525,0.869777328873738,0.55463250313778,0.442853013963767,0.486081953125161,0.380288043097027,0.570305836776987
720,cane,12m,PC,Trial1,0.467419241071725,0.467044132701077,0.523378736484936,0.379938631562288,0.303988100552773,0.774504561969215,0.426301840295909,0.293181355314558,0.814396476204992,0.699040872508959,0.410385405172796,0.469658155676279,0.397751339165814,0.868128618512827,0.543950475551831,0.442422426933822,0.480115461271768,0.399417042659199,0.569292463217123
730,cane,12m,PC,Trial1,0.469871256383488,0.456110924168603,0.520234629982315,0.357343772033018,0.309394506332828,0.769985228485811,0.424495919057699,0.282326409436755,0.832674201171194,0.701056353462274,0.416486854435015,0.473849940021147,0.401655684203674,0.867028627998994,0.535067101157629,0.443592542690437,0.473772910676863,0.419542005179351,0.568779209345886
740,cane,12m,PC,Trial1,0.477004376303496,0.439647463758118,0.516988698697647,0.33477488753798,0.317843082095334,0.765061621176758,0.421526698123453,0.273039330643572,0.847008869554937,0.704282118334217,0.426249862926074,0.473815252678433,0.407878515246821,0.866429771097388,0.527049831921231,0.446740249651526,0.467077055484074,0.439982352238543,0.569136803828836
750,cane,12m,PC,Trial1,0.488317114445522,0.421473622879744,0.513707231670409,0.321625533798627,0.33255042979684,0.760309066830029,0.417414176162707,0.265226392271321,0.856581907754755,0.708737277431431,0.438427325750874,0.473251152180086,0.41710732222793,0.866244835595887,0.51960737628701,0.451877058187603,0.460298315665081,0.460503431401359,0.57093708859951
760,cane,12m,PC,Trial1,0.503452824181182,0.402724122295128,0.508740130395393,0.313939548349145,0.35085435312347,0.757225064311874,0.412102099153148,0.258963381630279,0.862479244724516,0.714378789706077,0.452113779116428,0.470883627945983,0.430488140544898,0.866360347983472,0.512604329985905,0.458589416005142,0.453659710687663,0.481221230634182,0.57441278840683
770,cane,12m,PC,Trial1,0.521595453390967,0.383822036145242,0.503788958933284,0.310744273018801,0.369797169826586,0.75724348522851,0.405599482820954,0.254603885296305,0.86644338819426,0.721098284458375,0.466804472337316,0.466102463702477,0.446096806410001,0.866583395417167,0.508317347228844,0.466142515330299,0.446660844051805,0.502505929223564,0.579441175882304
780,cane,12m,PC,Trial1,0.541119040646449,0.36651513496061,0.500426436027014,0.310175885932078,0.388715202321719,0.756047618144263,0.398140377629141,0.251271871342011,0.869111418139439,0.728716969281758,0.482266941036663,0.457332391596388,0.46308598667368,0.866754537311392,0.507108750708835,0.473858764935672,0.439025956196461,0.523711046508258,0.584629018425357
790,cane,12m,PC,Trial1,0.561269314735555,0.351111468640569,0.498624088004673,0.30803692008318,0.40753343607577,0.755340474271826,0.390237399677704,0.248300465675847,0.87085545345544,0.736987910939095,0.498418497010306,0.445680326650076,0.480708583118689,0.867238900053572,0.505588056804798,0.481466713702826,0.431093837168186,0.544931075912427,0.589731403525315
800,cane,12m,PC,Trial1,0.582017252620907,0.337794022821034,0.498002999516812,0.303238267792901,0.426619495311464,0.754018417134763,0.382714101967718,0.24674001857379,0.871912295665728,0.745633174384381,0.515199995119011,0.432799243595319,0.498348159409844,0.867688161541575,0.503418050649443,0.489189852036588,0.423094394391461,0.566615805331553,0.594262511646943
810,cane,12m,PC,Trial1,0.602626591290261,0.326904875581305,0.497943441212931,0.296754802669311,0.44671084248319,0.751387331580408,0.376771814224348,0.247582248937115,0.872434991134072,0.754418631727448,0.532448325766504,0.419861550616177,0.515875327597422,0.867440813140672,0.500287156785686,0.49760668821842,0.415205007035122,0.589142955726041,0.597780857716171
820,cane,12m,PC,Trial1,0.621545779595694,0.31886013317523,0.498185191768517,0.289083339687452,0.468226310997636,0.74737941493865,0.374348932185265,0.252613790203998,0.872539165310445,0.763187238141514,0.549745610134258,0.40748218810659,0.53366664786454,0.865197981784172,0.495765461023468,0.506622174512653,0.408009282576964,0.612906946437972,0.600175939228575
830,cane,12m,PC,Trial1,0.636527607093514,0.313999322110162,0.495913805197548,0.280690697936485,0.491380246612754,0.740248069862572,0.375792707462833,0.260585466029587,0.872348953462685,0.772701521846281,0.56625540530211,0.399332059284251,0.549776629382025,0.85898156068564,0.489421680733969,0.515379406118715,0.401552599477206,0.63823206830003,0.602048562143413
840,cane,12m,PC,Trial1,0.645439901963759,0.312523392294894,0.489354374286097,0.272189846632601,0.518195815107294,0.729378639870172,0.37736441867069,0.273730635634466,0.872022026201087,0.782732638803303,0.58040917839231,0.394396428705371,0.563592673502358,0.848297433831869,0.481986226603591,0.52134640435592,0.394449445886275,0.665070437746775,0.603934319118375
850,cane,12m,PC,Trial1,0.651089598247615,0.316483270056204,0.479385097801897,0.264273364097692,0.547179971137089,0.716860023446184,0.38182780720603,0.293731791221238,0.871733602179207,0.791522696220013,0.5902556110514,0.389427976122516,0.574781518159506,0.834393738387977,0.47417241409151,0.525954574484101,0.387413154949301,0.691597926833989,0.605971096963795
860,cane,12m,PC,Trial1,0.653467280087395,0.327302050308156,0.46674572085172,0.257745104756111,0.577906535814061,0.704227105024251,0.389608428448517,0.316770756614793,0.871643504632287,0.798747665908893,0.592501768868651,0.384203564934395,0.583110525989415,0.817684799057957,0.466396229016833,0.530273457610984,0.380121170609832,0.712057004336996,0.608478188799295
870,cane,12m,PC,Trial1,0.653315119727745,0.342158330786082,0.450753648591773,0.254525693339682,0.609634072237844,0.692909375044038,0.400822916742504,0.341751476346565,0.871876636538077,0.804358098888912,0.586914147995679,0.378628274031293,0.58784352335563,0.799285678095778,0.458429352146336,0.534654969175021,0.370368242043619,0.7295517990588,0.611021344656097
880,cane,12m,PC,Trial1,0.651490974977945,0.358224746532579,0.432556927838979,0.257102166827909,0.640577111638348,0.681994795566942,0.41560062160069,0.367774979935912,0.872516411213588,0.807856544763708,0.575633556155217,0.372582303027506,0.588643027890978,0.780450896007376,0.450746174692289,0.539942288309369,0.360192728444981,0.746887658108253,0.612637613961667
890,cane,12m,PC,Trial1,0.648325202499027,0.375639848375642,0.41419425722202,0.262948094862351,0.670237800906926,0.671371907796262,0.433883295790072,0.395394120951453,0.873609134059146,0.807942578393205,0.560731558906534,0.367858958436153,0.58569852720453,0.761596689381418,0.444423416048294,0.544281217537771,0.352288040694847,0.764195454270419,0.611618295264198
900,cane,12m,PC,Trial1,0.644090619747495,0.394115876967548,0.397680685419671,0.27328285007364,0.697897028004084,0.661938415094788,0.454291876932671,0.422907881745653,0.875193800212831,0.805118839351708,0.544078886182505,0.364101739964884,0.578992217693613,0.742915484567593,0.441039662918851,0.547568965928257,0.351667570756727,0.780220453909052,0.60535276452454
910,cane,12m,PC,Trial1,0.639010847592238,0.413369544159345,0.383806178708837,0.287755351881588,0.723149815805929,0.65386183804772,0.474846762922063,0.45004754841632,0.877249256331414,0.799426710356408,0.527004890846458,0.361483912571519,0.568332392982788,0.724507629803519,0.442631944079416,0.549708677633811,0.358696566230392,0.794007645647437,0.594255615479166
920,cane,12m,PC,Trial1,0.633282339829148,0.433009998189278,0.373400156085342,0.300133167563215,0.7454296137529,0.647305108030213,0.494270288392165,0.477443053017099,0.879732861353036,0.790974023950587,0.510241784421132,0.360512287644623,0.554353647887631,0.706427752223518,0.453729593516851,0.548703939307052,0.371014937973114,0.804861850473615,0.577895333064945
930,cane,12m,PC,Trial1,0.627089994575395,0.452390520285291,0.367812010228826,0.310847639271782,0.763838790225866,0.642416971764762,0.512028931765342,0.505045319852594,0.883519770180988,0.779941406541533,0.494059365359606,0.3671613068241,0.538376278271838,0.688692091083797,0.472828864665289,0.546206720895845,0.386857409887653,0.811603157447079,0.55617603179343
940,cane,12m,PC,Trial1,0.620599847444762,0.470717287980288,0.368135634437676,0.321025650833204,0.77991914598507,0.639260542986363,0.5281473317605,0.532846009201578,0.888493214893124,0.766587522311041,0.478641758960876,0.37789560014,0.521368692045524,0.671507907957243,0.494775235689759,0.54325462873982,0.405212980661783,0.811392946982242,0.531832936517515
950,cane,12m,PC,Trial1,0.613955812895261,0.487717749203253,0.373425674348989,0.333271075106992,0.793771482270986,0.637771731705513,0.543068769366232,0.56066749520516,0.894516434691766,0.751243498921412,0.46420751165204,0.390702455495938,0.50544173489041,0.654796575531475,0.517830244176995,0.542712609001336,0.42528677743439,0.806011562924612,0.506137576686312
960,cane,12m,PC,Trial1,0.607280712689012,0.503202743855845,0.380802231650541,0.34627295420803,0.805521539419592,0.637739636582564,0.557398787914961,0.588157162457391,0.901350505645814,0.734257155801762,0.452481173857802,0.404807892136432,0.491326216317292,0.637831026007511,0.541313494840221,0.542982674769341,0.44536949866834,0.796802257036786,0.479566847928036
970,cane,12m,PC,Trial1,0.599345902969555,0.515857796877241,0.392148013591114,0.359455731350276,0.814740318526142,0.638814611509119,0.571588050725742,0.615083007570954,0.908136510267957,0.715942782237276,0.444876552343523,0.418530890993594,0.479008338999239,0.622546596636855,0.564697931708222,0.543180469544301,0.464027250344276,0.783951630913184,0.452172645786078
980,cane,12m,PC,Trial1,0.590615427758825,0.525091220992459,0.405712476689039,0.373026774098414,0.821128553544761,0.640543946249238,0.585676145313042,0.641598581572059,0.914894659565549,0.696587489693639,0.441879383426598,0.429996632766974,0.467217443965336,0.609173594349419,0.587387891682194,0.542813470711973,0.482415060426792,0.768062275556221,0.424466003302858
990,cane,12m,PC,Trial1,0.581814997978072,0.533270700419168,0.420058768667355,0.387582555750584,0.826692038705219,0.642237315057161,0.59897117516952,0.667981848172284,0.92154163118591,0.676552047123133,0.442710567729881,0.437833507484593,0.456931143520705,0.598099749452876,0.607125863806871,0.541333377808975,0.499178998231764,0.749451308897002,0.39677509323684
-1000,grasp,12m,PC,Trial1,0.286212934238825,0.530589904096928,0.333512209069417,0.622607667911675,0.637948506298576,0.79467457380156,0.327121760495176,0.506367793947992,0.629926206104977,0.82656009257852,0.799995746573579,0.407023588464384,0.442277478293076,0.489705743626988,0.661766122445649,0.728309932848166,0.626739430126766,0.461146135703503,0.635448887903466
-990,grasp,12m,PC,Trial1,0.309453275546867,0.524658034594822,0.335355628590749,0.631894185812315,0.62569590238702,0.789930722567,0.324632861507879,0.501301390104111,0.630048688613374,0.836163326510895,0.814402593204415,0.404034884829361,0.468809489751058,0.508327649046773,0.667634139541832,0.719140146470508,0.627507830617888,0.453510657821813,0.637139970540725
-980,grasp,12m,PC,Trial1,0.333560031866165,0.51788009425363,0.342932114836173,0.639316841923083,0.61334071459898,0.782904554596146,0.325303303019771,0.496610591930887,0.632310548480739,0.845063769764411,0.829219226823455,0.402464177682555,0.492515661547726,0.527403635491731,0.671073860621163,0.709178651718822,0.62784769653312,0.446217790678301,0.637485124963851
-970,grasp,12m,PC,Trial1,0.356217961723085,0.510269943842787,0.35615945441279,0.64530538520867,0.601186147868581,0.775057722151086,0.330227118580369,0.492843544320372,0.635162268699019,0.85333264416458,0.843547061784162,0.401970258468065,0.513252588069144,0.545035168650884,0.670138026053796,0.696816108892196,0.625545396067995,0.440256921078766,0.634416167014545
-960,grasp,12m,PC,Trial1,0.377195837671361,0.501476179849458,0.372059182161727,0.649844767036882,0.590039489589096,0.765990767582741,0.337605617926393,0.489776592119317,0.637083269821357,0.861011333264383,0.855471344166343,0.400567157992786,0.530128823672703,0.56091597673437,0.665541489123485,0.68412012737723,0.621314755787559,0.436356267395945,0.62906537140411
-950,grasp,12m,PC,Trial1,0.397144767708413,0.490343014322157,0.389348587457172,0.652723216476454,0.580812137741154,0.753826624102847,0.346054398856882,0.487698956875122,0.635690891102576,0.868116217977891,0.863633449917278,0.397882835626615,0.543237900409897,0.574423322582947,0.657886958470242,0.671960390157812,0.61627869635246,0.436944784137958,0.622378068851858
-940,grasp,12m,PC,Trial1,0.416843829519227,0.474774710872427,0.40684687178552,0.653679553207296,0.571870214676351,0.74057493979802,0.354218355785082,0.486898292979172,0.630515335138977,0.87460434808546,0.870191304692127,0.397248254966529,0.555006475064258,0.584663059401196,0.647651183306228,0.660743994743696,0.611150914901786,0.442893139666545,0.614694699455271
-930,grasp,12m,PC,Trial1,0.435557005322202,0.455775019269142,0.422735004355722,0.65234231743187,0.56567331489484,0.726061658158034,0.36301638841473,0.487676635210854,0.622235300594397,0.880121507346388,0.875395696508146,0.399465684926148,0.563239509465897,0.593356134463944,0.63474071669962,0.650907574964426,0.606489072672774,0.452989564345331,0.606095105435722
-920,grasp,12m,PC,Trial1,0.455099132444618,0.435841541294705,0.435370867366547,0.648036907294095,0.563940939210855,0.710348397836486,0.373287874750719,0.49029338882707,0.609780196539982,0.885414928309463,0.879483201609964,0.404934764979188,0.570473645823188,0.600391240467307,0.621086518281038,0.642938152654148,0.60266044684338,0.465702005262125,0.596790978937891
-910,grasp,12m,PC,Trial1,0.475525206010514,0.415888401692454,0.442896658613905,0.63864811877788,0.568092439495434,0.694123220646207,0.384026616450262,0.494988062759736,0.595730448255143,0.890327205058868,0.882477524726323,0.413822436598876,0.577057936374803,0.605298221050899,0.607504208023081,0.637452344963385,0.599435549036028,0.477811583964405,0.587206242014051
-900,grasp,12m,PC,Trial1,0.496732678530752,0.396653458825391,0.446199096027809,0.625572214969716,0.579298852472531,0.676736220216979,0.394828353932341,0.502022817427299,0.581043824481628,0.894535456404576,0.883884591297849,0.426127530607739,0.582955443463826,0.606154638430557,0.594947487899281,0.635327738467356,0.594223990767109,0.489163507072742,0.577745214290933
-890,grasp,12m,PC,Trial1,0.518483372304735,0.378801759929048,0.446243131577551,0.60967732425124,0.593666778820716,0.658499730093212,0.405767270516815,0.511627969114437,0.566203858703258,0.8980369583867,0.884091785226865,0.441690016601802,0.587753510419538,0.602643794936518,0.584149976301677,0.637369998826745,0.589677173126994,0.500414162573924,0.570086774277988
-880,grasp,12m,PC,Trial1,0.540495471360881,0.362905096344547,0.443236629606689,0.591591494770865,0.608134549793898,0.640087278373986,0.416850674590084,0.523881775928717,0.551731750251507,0.900658432966832,0.883260293294275,0.460234175573423,0.592073836196672,0.598151168436471,0.575402059076423,0.643121315889366,0.58770059316935,0.511423575041548,0.56534593371117
-870,grasp,12m,PC,Trial1,0.562316047396776,0.349427917855898,0.439086886643732,0.572373915003816,0.6207594581288,0.621718628530599,0.427758525606771,0.538561852969402,0.538325490537209,0.90213240157625,0.880858992311284,0.4814196913396,0.599225834493578,0.593784549914416,0.569231760644003,0.652224133093815,0.58705130132708,0.521992117978516,0.56353989764567
-860,grasp,12m,PC,Trial1,0.582250507229719,0.338721311432721,0.433755999296344,0.553685392216805,0.631918013306605,0.603777789070025,0.437849259549199,0.554902151925288,0.52699340729519,0.902047900290997,0.876346637978912,0.504872732182091,0.607570747953862,0.59025701971295,0.566806165754377,0.663323662509103,0.587131664994927,0.531858077302839,0.564055374807986
-850,grasp,12m,PC,Trial1,0.601797968989855,0.33102120956646,0.427919764762985,0.539537088092529,0.64195194737758,0.5873239193273,0.446308175819361,0.570645742140824,0.519031027115818,0.899290164282137,0.868066195391877,0.530204472659006,0.617206290633069,0.588029396884105,0.567445806668559,0.671274113585589,0.587794689250879,0.540717924074353,0.565669018880851
-840,grasp,12m,PC,Trial1,0.620833832902037,0.326447777767977,0.421992588927538,0.530896235851141,0.65093400825193,0.57287987867891,0.452677287026823,0.581944042596371,0.515466969471561,0.892876456722237,0.856955230739694,0.557013822420518,0.627528410435979,0.587377057175177,0.569971463741105,0.675328525668687,0.58910584080862,0.548266960306721,0.567885703875764
-830,grasp,12m,PC,Trial1,0.63950357692312,0.325015262512814,0.41618526357104,0.525914753037042,0.659090096995894,0.560199739229176,0.455320476436148,0.589526398646879,0.516336809845756,0.883356222429168,0.844033694157539,0.584845212898633,0.636234416544241,0.588386552062444,0.573105045668362,0.676967424140768,0.591218726099146,0.554239088798294,0.573263287332535
-820,grasp,12m,PC,Trial1,0.657778314878698,0.326679198078391,0.41051091616063,0.521548203259958,0.666630983851867,0.550687305027238,0.454929778349815,0.59454688494729,0.520961657041665,0.871509719101231,0.829753338211629,0.61315344649942,0.644315843574443,0.590868862576258,0.575593782371751,0.676683309155212,0.5942280837094,0.558405518683812,0.5828994221761
-810,grasp,12m,PC,Trial1,0.675507919774157,0.331451516992572,0.40468305681259,0.513716826553305,0.673561401326306,0.548208304296439,0.452539121679316,0.597884106065893,0.528609842947511,0.857343718035561,0.814535252936839,0.641224097994448,0.650168440604405,0.593268234227395,0.576319870541876,0.675064400270154,0.598060083827861,0.560821666547479,0.593928501255157
-800,grasp,12m,PC,Trial1,0.692415394957494,0.339580783527236,0.397867202932961,0.506144800213733,0.678430885064509,0.547687989338704,0.448143117948199,0.600159873385764,0.538598263375791,0.843483790242045,0.798694910707253,0.666786962026854,0.653209833598076,0.594530367464682,0.574412462755564,0.674089482080162,0.602612463388847,0.560191006947061,0.60662882146234
-790,grasp,12m,PC,Trial1,0.708027250020516,0.351591154662407,0.388958454074449,0.499336936104533,0.681274566053705,0.547293604541611,0.441349238959268,0.601551765049136,0.550172183975451,0.830477255386831,0.782416368020421,0.690282185849605,0.655153501637227,0.591802166168562,0.569425176012576,0.673621011053532,0.606874599306518,0.558121605874007,0.62009213610717
-780,grasp,12m,PC,Trial1,0.721709673718768,0.367800399866145,0.379864539066279,0.493161888514857,0.683845467640497,0.545770861866734,0.433425461148147,0.601905575848914,0.563214611492325,0.818596848608388,0.765766225243341,0.707278537821963,0.655847474187486,0.581059590148202,0.56117900660505,0.672526101416765,0.609529012972079,0.555744879488646,0.631843002772014
-770,grasp,12m,PC,Trial1,0.732891386831435,0.388227458101104,0.368937541879891,0.487578131830485,0.686625149150597,0.544810581985529,0.426185406716737,0.60089382965282,0.577100894668033,0.808023822523498,0.748791349812089,0.717584504780132,0.654008375248227,0.563757065754389,0.549327664298273,0.670469383073623,0.609417575338868,0.553654802948227,0.640610223254375
-760,grasp,12m,PC,Trial1,0.741224276738128,0.412344206235406,0.35769305503569,0.48088921738988,0.690120137004507,0.544517466852368,0.421382818404931,0.598169995401728,0.590773653583703,0.798709328547845,0.731919966595705,0.723822205258788,0.648051537001236,0.543634186752052,0.538226906347308,0.66736859993815,0.604605371782173,0.552312617060647,0.645125550470298
-750,grasp,12m,PC,Trial1,0.746554083426147,0.439099524880535,0.346428666348878,0.47437452630134,0.694721671576861,0.545037685508401,0.422453030217893,0.593336474437264,0.604197264142972,0.790485815675835,0.715811075915401,0.726243933356009,0.640371564880576,0.522502577347407,0.53133077479967,0.663172348671893,0.593541449760536,0.551850040520725,0.646247605671378
-740,grasp,12m,PC,Trial1,0.748846117398965,0.467635843568413,0.335248022685633,0.470354709799395,0.700730933611987,0.546505801085381,0.426488323788804,0.585413100882964,0.617170913943816,0.783122500403887,0.699782901127371,0.725396426575262,0.632778058461243,0.501391828851084,0.526752074236988,0.657782612910997,0.577508828266732,0.552542270000993,0.644771046459576
-730,grasp,12m,PC,Trial1,0.74811782704091,0.497282419050795,0.323506387431564,0.46925269228202,0.708380583129714,0.549035526317113,0.431669685367413,0.570555225536069,0.629539792243058,0.77628674379966,0.681148428352905,0.721688281817089,0.62613910058968,0.482441286856881,0.522942396766841,0.650991256339096,0.558492451042797,0.552570494743518,0.641052128123969
-720,grasp,12m,PC,Trial1,0.744388366323893,0.527407856036567,0.310627977736333,0.469889211880727,0.717698578031381,0.552734317301304,0.436894822515017,0.552921072346486,0.641180756147331,0.769775924326551,0.662248600519792,0.715325714216293,0.62119290809004,0.464919542974605,0.519262206708125,0.642471669107182,0.537375858522773,0.552878905321365,0.635628051734994
-710,grasp,12m,PC,Trial1,0.737650241024255,0.557139746317509,0.297441597953572,0.474036200058578,0.728414074630733,0.557712286180353,0.442143785395267,0.536002083239297,0.651959132573646,0.763932972759342,0.643217652908444,0.705983284076023,0.619054134916963,0.44914867474167,0.515414750928887,0.631224520131211,0.515045747733564,0.553726768474232,0.629089790154188
-700,grasp,12m,PC,Trial1,0.727862825240665,0.585201418988327,0.28452181592161,0.4829082077632,0.740108823092053,0.564077592632338,0.447734760272225,0.523612844477821,0.661725868308947,0.758983121231986,0.624215228157109,0.693902627566355,0.618219739048522,0.435098230149141,0.511439017109776,0.616412401800291,0.492291724195135,0.554601616522446,0.621940758988892
-690,grasp,12m,PC,Trial1,0.714973790571268,0.610607599384528,0.272265187357098,0.495328993132952,0.752353136049248,0.57191886616544,0.453461340717785,0.51838483567434,0.670341189669963,0.754941198466209,0.605186512620245,0.680130644429999,0.615804115987526,0.424760635990964,0.507560144497243,0.598238135077127,0.469915678973974,0.554679302069033,0.614632421645413
-680,grasp,12m,PC,Trial1,0.698981434449024,0.632618974830741,0.260931618656823,0.508962827224292,0.764733710128209,0.581267817733821,0.458595909512711,0.521160981687638,0.677688079823061,0.75173473481784,0.586048711439036,0.665796426612538,0.612378845575716,0.417696209496248,0.504034776598124,0.579567754567399,0.448918938693881,0.552727253151429,0.607594690061111
-670,grasp,12m,PC,Trial1,0.680080007342122,0.652169879846566,0.25070686895824,0.522150565686864,0.776815975833605,0.592042647766311,0.462483360968839,0.526086098869731,0.683524465327431,0.749026274439768,0.566802365960449,0.65166708505408,0.608461762706281,0.412185435471424,0.501149647423837,0.560760335903939,0.431821939703546,0.544541291252261,0.601253706237166
-660,grasp,12m,PC,Trial1,0.658984952369355,0.670522567632533,0.240256540203379,0.535134830110947,0.788067192507648,0.603979758625605,0.4646911145092,0.531224958967354,0.687185915296677,0.746160888708042,0.547909916251319,0.63812709668808,0.603900206646412,0.406866779014378,0.499229754569512,0.541511783972949,0.417243862344132,0.530502894761018,0.596031259297686
-650,grasp,12m,PC,Trial1,0.637300789312423,0.688383222791169,0.230383628402334,0.547604066536518,0.797890225981564,0.616526656772938,0.465102961764104,0.535961545494553,0.687407884841598,0.742944769057848,0.530025768728847,0.62540612721268,0.598637450976942,0.400682475844753,0.498486359207748,0.52154391019841,0.404976213314709,0.514931897814426,0.592277383334423
-640,grasp,12m,PC,Trial1,0.617152850127153,0.705130806508332,0.222814156072407,0.559038646662483,0.805785305653307,0.628603143558252,0.463985125256659,0.540037411593483,0.683491991996127,0.739096232851655,0.513181274792049,0.613626959320835,0.592707930108763,0.392767146268346,0.498567828655055,0.500790199530702,0.393032157861088,0.499016968273435,0.590099115656406
-630,grasp,12m,PC,Trial1,0.60167298373156,0.719508465926925,0.220131647094619,0.56871232497528,0.811232252075098,0.63832069132192,0.46275080417935,0.543175878484049,0.678081171352735,0.734786199859966,0.497198605131993,0.602806588480041,0.586239709059785,0.383043293594733,0.497718343523732,0.479149899063082,0.380664681967382,0.485506084226415,0.589238157342354
-620,grasp,12m,PC,Trial1,0.591579921113015,0.730896018999319,0.222975119407707,0.574891487368106,0.812867508161778,0.643775877934369,0.461615777867845,0.543220811424115,0.674798965854784,0.729908094607195,0.481058750690717,0.592885903469272,0.579438522807854,0.372507187964051,0.496308118223351,0.456183144487517,0.370090054151621,0.478652305902989,0.589101942241981
-610,grasp,12m,PC,Trial1,0.586716607633737,0.738355107585736,0.229605918795683,0.575527449406293,0.809629816512538,0.647632786254879,0.460472261654087,0.539318517288257,0.673348895139151,0.724934321170057,0.462694490120589,0.583929740416432,0.57254057434909,0.361461009984001,0.49854144606031,0.432388142061465,0.363835085365475,0.479472815355304,0.588681456444524
-600,grasp,12m,PC,Trial1,0.584129743760304,0.744045516663225,0.238106670163617,0.573692481352865,0.803702007170576,0.648879209630393,0.459985907713368,0.532488452763766,0.672680979753307,0.720496320728639,0.445186466415581,0.57626367568693,0.565776315275679,0.350319325317787,0.504419985009862,0.410896322642398,0.360341642271186,0.486502555421363,0.58622110031912
-590,grasp,12m,PC,Trial1,0.582755800672579,0.748599094959916,0.248747347661361,0.570252251579102,0.796657320585743,0.648994650668714,0.461689921126721,0.522534139537771,0.672191888655606,0.717888301627776,0.431718221404919,0.57011938711367,0.559357525156449,0.339740326249422,0.514335811162729,0.396080753620106,0.359343877048802,0.498915507123104,0.580958422457736
-580,grasp,12m,PC,Trial1,0.581890508874185,0.75252474876142,0.261214970960891,0.565024005291556,0.78929453048671,0.647561302127373,0.464924812507779,0.507704145569622,0.671588340674921,0.718169409888621,0.422431855054365,0.565483724658391,0.553448415152498,0.330640299934556,0.529440815591782,0.386643104368836,0.356653491117323,0.515860384051246,0.574276712989388
-570,grasp,12m,PC,Trial1,0.581082831553275,0.755941832577501,0.275320617592249,0.560681525934191,0.782231966514544,0.643333572940194,0.467995316175207,0.489515330174733,0.670856002127316,0.719519316215887,0.415494372935819,0.562087375586421,0.548156696213399,0.324163192365162,0.547275448436263,0.381021207598927,0.354661389300838,0.536201689692983,0.566938947355508
-560,grasp,12m,PC,Trial1,0.580162705635114,0.758716382349338,0.291128655582378,0.55620591902712,0.776031958068719,0.638420475484077,0.470872188235985,0.469340253986735,0.670162068228721,0.721025362718182,0.410029235762413,0.559474914062877,0.543387655481376,0.321499963505169,0.565002385512172,0.379588420428356,0.353090860114002,0.558403544513755,0.559827248963339
-550,grasp,12m,PC,Trial1,0.579293038753603,0.76036785374437,0.308593058454762,0.55090207439685,0.771168675584126,0.633050669419031,0.475129107518186,0.448084843369052,0.669744352487632,0.722974754182819,0.403134152934115,0.555350228853113,0.540160360641813,0.322374131492545,0.578265566226865,0.38192852218278,0.351834284481655,0.580714019282986,0.553737677864713
-540,grasp,12m,PC,Trial1,0.578736459667092,0.759590712848673,0.327480390968797,0.542586790389798,0.769530313997669,0.627422266908291,0.481121268474949,0.426758322519846,0.669797342062123,0.724135658652488,0.395092508907715,0.549838110410102,0.538134428215828,0.323693889971366,0.587417794261255,0.387434889094549,0.350630666063237,0.601829266037746,0.549219564233407
-530,grasp,12m,PC,Trial1,0.57823120970073,0.757116937551905,0.349383964568245,0.532811938873789,0.770660686820665,0.621541881797551,0.488664468047954,0.406629423384642,0.670318348949443,0.724926308092428,0.387497943908368,0.544505396859259,0.537113077519834,0.321498982210544,0.593064855315196,0.395509774482249,0.349022985344141,0.619684988232397,0.546549713590388
-520,grasp,12m,PC,Trial1,0.576586716618918,0.752906184628212,0.376740498405488,0.522250499570756,0.773698832336635,0.615320243824521,0.496975852872743,0.389438714219234,0.670787439013901,0.726559206832852,0.380903025531743,0.539671814813993,0.538261903170205,0.315920950135724,0.595100117086401,0.4053603220204,0.345605060257696,0.63532192899926,0.545748170853931
-510,grasp,12m,PC,Trial1,0.570605703256206,0.747684485994208,0.406369721564423,0.511978649327728,0.77822739837438,0.608844064561135,0.505040770195092,0.376511441475226,0.66880392007105,0.728844404250265,0.376056104048946,0.53525235359811,0.540125628303665,0.307852751907972,0.593796420834474,0.417321504233985,0.344321926021499,0.649010311182673,0.546583553887567
-500,grasp,12m,PC,Trial1,0.560300170089766,0.741908777615437,0.435856183268866,0.502674385540144,0.78391063584163,0.605154153301332,0.512370152258891,0.368516285766976,0.660688167380205,0.73155226930784,0.373779541535876,0.530965472687542,0.541510415816549,0.299055984999433,0.589417690450084,0.431760706264109,0.346481596750934,0.661488565531827,0.548289205800419
-490,grasp,12m,PC,Trial1,0.545014969715684,0.735894094473129,0.463073635432927,0.494882158773176,0.790386868451067,0.604292717707941,0.518551270692372,0.366085296845073,0.650994303774803,0.734376526280164,0.374856409790128,0.526009064118405,0.542019595633334,0.290929892510619,0.582263189350662,0.448100274055521,0.352488294705052,0.672991014458847,0.550484151515544
-480,grasp,12m,PC,Trial1,0.527062057470424,0.72991511571323,0.48753465927934,0.488823829230959,0.797086042858912,0.605059895182796,0.522962040890497,0.366735568868346,0.640205881281355,0.736994402192298,0.379655144866589,0.518775616652588,0.540946043417719,0.284543503694334,0.572918165207101,0.465666369985341,0.362308118374314,0.683359791966719,0.553664666407697
-470,grasp,12m,PC,Trial1,0.509077114146161,0.724220035346349,0.508898041656611,0.484417346904588,0.803582856737125,0.607042496319856,0.525669948535351,0.370334751212363,0.628663368807001,0.739138149132096,0.387351017020771,0.511772708787173,0.5370284444733,0.280994490559881,0.562116374091937,0.481575162403389,0.376278483261644,0.691995010904095,0.556688592773351
-460,grasp,12m,PC,Trial1,0.492790950880897,0.719049557359478,0.526542802191879,0.481310766557634,0.810073308892128,0.609392218744158,0.526616474265118,0.37405177375002,0.616348539809332,0.740654376797999,0.396866899780303,0.506016307865969,0.531900081589603,0.280779861488127,0.550527733498228,0.494142417095924,0.39458120613107,0.698589834785546,0.558826897353362
-450,grasp,12m,PC,Trial1,0.47957493220255,0.714650918093869,0.538089035725512,0.479419981759995,0.816883385380921,0.611535077366882,0.526762337883319,0.374818767828986,0.603119210992503,0.741536350269086,0.408148008301966,0.501857091947428,0.526637014274489,0.283158416855937,0.538799244115052,0.505164761778832,0.415349711880859,0.703152279264712,0.558624113735052
-440,grasp,12m,PC,Trial1,0.470467756888104,0.711281829994071,0.545215015259256,0.479208098319375,0.824189567771601,0.613130937723617,0.526287471324923,0.371539486388025,0.589129256458911,0.741901362697608,0.417111000052581,0.499691572805281,0.521916214734865,0.289045826165108,0.527650289474709,0.514744984102545,0.437055688880226,0.706385729696514,0.555322198928442
-430,grasp,12m,PC,Trial1,0.465870753484171,0.709198740924275,0.549951285813538,0.480722000248165,0.8319461839251,0.614905514243456,0.524763074997302,0.367855875719445,0.574735573594921,0.741884289791339,0.42506053500648,0.49983478068753,0.517825199093147,0.295469320404059,0.5179064855718,0.522825181346239,0.457076016532148,0.706540273918281,0.550146868897325
-420,grasp,12m,PC,Trial1,0.465552470471925,0.708605343607861,0.553233469169891,0.483680941325234,0.839838385298963,0.620328574329031,0.521829539026528,0.36476005643241,0.557990487432353,0.741392552800976,0.431806670652206,0.50242821866625,0.516352056971479,0.303071987541098,0.510452990686995,0.52970099915983,0.475212878323646,0.703718438735904,0.542540096664978
-410,grasp,12m,PC,Trial1,0.467624072683849,0.709531366923928,0.552721266283165,0.485762083070125,0.847343564638967,0.627825786317082,0.517579473699911,0.360122847599713,0.541461861021638,0.740200795131249,0.437114113549449,0.507391207432978,0.518304696506183,0.312219480834859,0.506116229531325,0.536962384080065,0.49223278557258,0.696675005433427,0.531775072953443
-400,grasp,12m,PC,Trial1,0.470419779265489,0.711710418077385,0.549906908036945,0.484672304317466,0.853897979654264,0.637585782598161,0.512206135176487,0.353258529568188,0.526235585733266,0.738627039360617,0.440634388120399,0.514364267613538,0.524098276723282,0.323037725918572,0.505518103102393,0.545281339402627,0.508548838840424,0.684310298792367,0.515842767458227
-390,grasp,12m,PC,Trial1,0.474157116821632,0.714061097095949,0.544915472544613,0.484785269687464,0.85905453707027,0.647037736329726,0.505772091392785,0.344840339700731,0.512775376113868,0.737363443502548,0.442045042147012,0.522780838676046,0.533819798098743,0.335416736501081,0.508969913909697,0.555181045220597,0.524868800076773,0.667422700666299,0.49446474148515
-380,grasp,12m,PC,Trial1,0.477834756774392,0.715329274772296,0.536992607252699,0.483994256634951,0.862388056064199,0.653078162198478,0.497106473454083,0.337300273383297,0.501377919278079,0.737819173632094,0.443476665855866,0.532168415929601,0.545788006688769,0.348508849788785,0.516439614790186,0.565788462331097,0.540668694407634,0.649753625984506,0.46864150309729
-370,grasp,12m,PC,Trial1,0.480773249166067,0.714940553070175,0.525820728696488,0.48195424384954,0.863396345685866,0.656457748455166,0.488135106330623,0.331388320997319,0.492243491191155,0.74231086773865,0.445371936805691,0.54198046208344,0.558207998152825,0.361291662598928,0.527574555409496,0.576817130574377,0.556616722301169,0.632829087809413,0.438888874925757
-360,grasp,12m,PC,Trial1,0.483330332107414,0.713092228751625,0.512938397894269,0.477800933330374,0.863066299221747,0.656760232323638,0.479411317485894,0.32760257187394,0.485463808997585,0.748549343038591,0.449319260686319,0.551260705206638,0.569730431805619,0.370378949266693,0.541810210868924,0.588069656615041,0.57440615886591,0.615600180688354,0.406514367377965
-350,grasp,12m,PC,Trial1,0.484746052776924,0.709948824215598,0.49874895408244,0.472614517289744,0.861632110533508,0.653755763140828,0.471060587728713,0.326528791639137,0.481008470503646,0.75593709968915,0.455723903507984,0.558678364714707,0.579189611913926,0.375466199385961,0.558627656104926,0.599114465199555,0.594475841084021,0.597906395928244,0.373255902084416
-340,grasp,12m,PC,Trial1,0.484084276836151,0.704062553726652,0.483561099681948,0.468448533523812,0.859019155030468,0.647227551440852,0.463251691432656,0.329192895183325,0.479017432907121,0.764142035927312,0.465250189040884,0.562692842324563,0.587935602669735,0.376207109445082,0.576415593685731,0.60824637659921,0.616496177315803,0.579132809717417,0.340752814679279
-330,grasp,12m,PC,Trial1,0.482026657097997,0.696216257775825,0.466992937520304,0.466593834674437,0.855183964887268,0.637319097310026,0.456107477510822,0.336690575560596,0.47950848587733,0.770590759458168,0.47801066206525,0.563084529909895,0.596175936318457,0.370777656448483,0.594405550356215,0.612850884745681,0.638315513181865,0.557703448322347,0.321067606563326
-320,grasp,12m,PC,Trial1,0.478992751775648,0.68942865140961,0.45040194318704,0.468228950344859,0.850086996031507,0.623723600295767,0.449650365473478,0.351336605340779,0.484928248836944,0.774152473427279,0.491987121381833,0.560460174417799,0.602956119465758,0.358613990352419,0.612491220458364,0.613283262319256,0.658037632947255,0.534128882961086,0.316013741440815
-310,grasp,12m,PC,Trial1,0.475306628513751,0.683935795160867,0.441711746022832,0.476071924847357,0.843674058601783,0.605927033548732,0.443699279264157,0.365978777165207,0.492553339357638,0.775419146523855,0.50817198472335,0.555645871282328,0.608335740100579,0.34199679857584,0.630083884021683,0.610507873888448,0.672947564014444,0.512163501345618,0.314897599498269
-300,grasp,12m,PC,Trial1,0.471097520092569,0.68005484397895,0.435599656987541,0.488067074456944,0.83585867453554,0.585858657656775,0.437817087421616,0.380007920867616,0.501243070087658,0.775282082984483,0.524445774737544,0.550339361509828,0.612465430384178,0.324538453745978,0.646354025988733,0.602790273584004,0.681173854657706,0.494234628907785,0.316158770991035
-290,grasp,12m,PC,Trial1,0.466319433765513,0.677676292330568,0.430381749377014,0.503107357856234,0.826498963261797,0.563734016778045,0.431908375281261,0.393120273402929,0.51019728383983,0.774155309994722,0.540875481676987,0.548749534077876,0.613710907870178,0.310574056451736,0.660469405647689,0.591780306537411,0.683968181351409,0.477723259603533,0.319522094709466
-280,grasp,12m,PC,Trial1,0.460821441692503,0.676895423035411,0.425237353933478,0.520018949956793,0.815569772323801,0.539586553929851,0.426521766671165,0.404771829477838,0.519460951614096,0.775908522144156,0.556814836705475,0.551474095452349,0.611538677644555,0.302140887210577,0.669565021079714,0.579114767780704,0.681920263775825,0.46189491388918,0.324889254992286
-270,grasp,12m,PC,Trial1,0.454445972582191,0.67776842258504,0.420103296197128,0.536332169514513,0.803526458902792,0.51278026550053,0.422138718014799,0.41326131143662,0.530511040137025,0.77762005605853,0.571172391199592,0.557250075748725,0.608405646709449,0.298643901898421,0.673434043817926,0.565765936067757,0.674895299425904,0.446744264889916,0.331992478232025
-260,grasp,12m,PC,Trial1,0.447211263343151,0.68016850627449,0.415974339802541,0.551618957889119,0.790840321467674,0.484338209055818,0.419008227274352,0.418239608026144,0.544084225377033,0.779802814213243,0.583377416470726,0.56297468848422,0.604768009261915,0.299962055899925,0.67318939212944,0.552249883113501,0.665350643288045,0.432045872601064,0.340244754105686
-250,grasp,12m,PC,Trial1,0.439596570122485,0.683688180825718,0.410333562361107,0.565812132230304,0.778015671820259,0.456513256888059,0.417208421401507,0.42076923089101,0.559987345831512,0.782704787237128,0.593365730929382,0.567403773979731,0.599923597347014,0.306103689586441,0.670633785835721,0.537318387259033,0.654073666642993,0.417137377448474,0.348526006631861
-240,grasp,12m,PC,Trial1,0.432456247598229,0.688161372851152,0.405525530490204,0.57849830926388,0.765578745049951,0.432033916870397,0.416563954877124,0.419066635808944,0.577320582488573,0.786135912538065,0.60159378230683,0.571857344513192,0.598761938213462,0.320304876400289,0.668609739370625,0.521634813354715,0.641341639404776,0.401921214448464,0.356478105642257
-230,grasp,12m,PC,Trial1,0.426226418105058,0.693608850474293,0.402838492492597,0.589010854183943,0.753866777647911,0.414301380131323,0.415927441556681,0.412399943184366,0.595396866176223,0.789803292525861,0.605992577898491,0.578306292497111,0.600855979895822,0.340947282136452,0.667929463006334,0.507518847712324,0.627287440571991,0.382967160697884,0.365741089468236
-220,grasp,12m,PC,Trial1,0.421127558275498,0.69907040835121,0.401076951176599,0.596166374996668,0.743200818866767,0.401372364472261,0.414828539718947,0.400926823284715,0.613598861103732,0.793422810310357,0.605800413254804,0.587310062018092,0.60519863339117,0.365803643725678,0.668712539030198,0.49637930648556,0.611742444971382,0.361276028592873,0.375999709463876
-210,grasp,12m,PC,Trial1,0.416439187528213,0.703938483154809,0.400909878289144,0.597949837330283,0.733886052049752,0.394045220596944,0.413385273586971,0.385171124191075,0.630169870220194,0.796792146004828,0.602022989955298,0.59864797938154,0.610615297077634,0.392589386375544,0.670843081602266,0.489185237061396,0.596571887614552,0.33887836703076,0.387605426535517
-200,grasp,12m,PC,Trial1,0.411318491153823,0.707959815420591,0.404525906082939,0.59279923977466,0.726135780511691,0.392818281200675,0.412583206110079,0.368044326229635,0.643764252101901,0.799875292565334,0.595524797332018,0.611646320853935,0.616335832516418,0.420136318587321,0.674072990560915,0.486434147253781,0.583212928398544,0.316374155640309,0.400570566771114
-190,grasp,12m,PC,Trial1,0.404754248046052,0.710951967222163,0.417103501407391,0.582583452924064,0.720079305927588,0.397001767345724,0.415754820717812,0.352797803494752,0.654243960209742,0.802875462448497,0.587479834014209,0.626066970542791,0.621728520429542,0.447908195472019,0.678070678526041,0.48792217263361,0.572652461664148,0.293984395821632,0.414843656920197
-180,grasp,12m,PC,Trial1,0.397157940370613,0.71278011702846,0.432575078474438,0.569172185715941,0.715795140588214,0.405330109070767,0.419573099751303,0.340123515413389,0.661847667687955,0.806202794582952,0.579609299528799,0.641726372738845,0.626170622273205,0.475731499920555,0.682469085829327,0.49171565009583,0.566436229855194,0.27201769096344,0.430184921851566
-170,grasp,12m,PC,Trial1,0.387711223130957,0.713357019389096,0.449976727005412,0.55513144508346,0.713355795613738,0.416002870196268,0.42292818207056,0.33062808683189,0.66680901539338,0.810280712183149,0.571928578625501,0.658271644265127,0.628929320401508,0.503553429457943,0.6869201230837,0.496540538364806,0.562446645147256,0.251178828846627,0.446123324962493
-160,grasp,12m,PC,Trial1,0.3753915488045,0.712645812210608,0.468648987119703,0.543115198693355,0.71286241561853,0.425900240474371,0.426375776478478,0.32469179069758,0.669670396330884,0.815378512011049,0.565040476569404,0.675189717979967,0.627881774239073,0.529465570926057,0.691106350271062,0.501829220566389,0.558689021792441,0.2329129495224,0.462205474182588
-150,grasp,12m,PC,Trial1,0.358801746215856,0.710685446993666,0.487820681802872,0.531061303557605,0.714298704087148,0.434191007147149,0.431917529029831,0.32438832308123,0.668814328328619,0.82190367823121,0.559276517287708,0.69184821250901,0.622823684948924,0.553645849144349,0.694975457696544,0.508956062428203,0.554830927153191,0.22181830759719,0.478162625348384
-140,grasp,12m,PC,Trial1,0.340135336542744,0.707636662947904,0.506611232073224,0.517985079892261,0.717205135670417,0.441659647391963,0.44314929102732,0.331888853277284,0.665378035916475,0.830426419453567,0.555314140331877,0.707414315017966,0.61651755824048,0.57609478407003,0.699327715023577,0.516829302589031,0.55093604657813,0.219783017283706,0.493896301038165
-130,grasp,12m,PC,Trial1,0.320501845597365,0.703725169978033,0.523931403709752,0.504202799999489,0.720764950392106,0.449777533672443,0.457559137643014,0.341559586958733,0.659717278458809,0.840385294872621,0.554375370584868,0.719580860013767,0.611163843901645,0.596585674807956,0.702857777170508,0.524910578664714,0.547467735866931,0.223499806586223,0.509563140126034
-120,grasp,12m,PC,Trial1,0.300859616155892,0.69928119583319,0.537835151841645,0.490898263312585,0.722968548351432,0.460067579413958,0.473607715554914,0.351023444665905,0.652178508404566,0.850229376436915,0.556173680119431,0.724904528148598,0.60925161544395,0.614774084118937,0.704358396208078,0.532813383658252,0.545207371108636,0.232803608765011,0.525813446220916
-110,grasp,12m,PC,Trial1,0.28244209601499,0.694893794976948,0.544607315211878,0.478392640084192,0.724775389113338,0.471130580145348,0.490508381352408,0.357268623430195,0.642823616661332,0.85890715195246,0.561446961711885,0.724347975554685,0.610762843054247,0.630003656128981,0.703851365765828,0.540602946213163,0.546986865964909,0.248801463888296,0.542943176173339
-100,grasp,12m,PC,Trial1,0.266959372046259,0.6909664036852,0.542880687405015,0.463478929399929,0.727077745319812,0.486239212676775,0.508101261584803,0.358803255091366,0.632979624158741,0.8657627004548,0.570649818521133,0.718916582508356,0.614055867488882,0.641292492368702,0.701545498680655,0.546551205742771,0.550510212652403,0.269275187121418,0.559202659032895
-90,grasp,12m,PC,Trial1,0.256506754410023,0.687577964366068,0.532060418999798,0.448616547583083,0.729627335652339,0.501533860635276,0.526952829714835,0.356114155717865,0.623585484252099,0.870040600772893,0.582846031154175,0.710711106979464,0.618218845352796,0.64735322133631,0.697310484678322,0.550844017682947,0.554341713278136,0.292387236302468,0.571833416952735
-80,grasp,12m,PC,Trial1,0.253573599863586,0.684599315969867,0.513499723451102,0.436002636557725,0.731919852525053,0.514598189741353,0.546789222055615,0.353015943905242,0.615224784513844,0.87348824880647,0.593218963446897,0.700108431524711,0.622565974355073,0.647813716842858,0.690619073303796,0.555040046698079,0.558716644187935,0.316807431799409,0.58246176987019
-70,grasp,12m,PC,Trial1,0.258452555337431,0.681663884605534,0.488414609977941,0.42560283317586,0.733649845961556,0.522976205143375,0.566978108832768,0.35116475624927,0.608307183731003,0.876584214855508,0.598907406772108,0.68776366384192,0.626537893294351,0.644470049098706,0.682908612156979,0.558121227714946,0.563618222148699,0.341094365183386,0.593539133264774
-60,grasp,12m,PC,Trial1,0.269092372043925,0.678035592303328,0.459734759665598,0.41567842067165,0.735127547131605,0.530208200498953,0.58667456319716,0.350979587393575,0.603085848622961,0.879321616375861,0.597253897222533,0.672462640388139,0.629459362277244,0.63846753334232,0.67498319832938,0.561555094743599,0.568580690937282,0.363819563537069,0.607269213337276
-50,grasp,12m,PC,Trial1,0.280867085922008,0.67238671960009,0.429531250986884,0.405525533852339,0.736704359087422,0.537482924162878,0.604968148654575,0.352605342533191,0.59963206785904,0.881321626277554,0.586953548145238,0.655412069098973,0.630770025275083,0.630150962651899,0.667544683700702,0.566366088486126,0.573192471452036,0.383442346668569,0.622625479889329
-40,grasp,12m,PC,Trial1,0.290629544248176,0.664636103313262,0.399803048331487,0.395163256382136,0.738597864438524,0.545389028055463,0.621091638153212,0.355667001752278,0.597751594004589,0.881566732100083,0.568199039008795,0.638190547699568,0.630346025071748,0.620533853763041,0.661154726595458,0.572810396047966,0.577280022799545,0.398861538407275,0.639180169700203
-30,grasp,12m,PC,Trial1,0.296260114819213,0.655904702291976,0.373651377207438,0.385409918374768,0.741047117216582,0.553939040906263,0.63278949226465,0.359028506311494,0.596747903236148,0.88016995179748,0.543826249236281,0.621003308573245,0.626964672508513,0.61104146742333,0.656908566155093,0.581059405490286,0.580807544736229,0.41281376124594,0.656680450304462
-20,grasp,12m,PC,Trial1,0.295137527231855,0.64631533816909,0.354147300193824,0.3787565595406,0.744200517479135,0.562163026684971,0.639703933273943,0.362316608708986,0.593597211963537,0.876978579546663,0.5171773050909,0.604054755745667,0.620142836424772,0.603409523959879,0.655786292254265,0.591211980999245,0.583486991713415,0.427912321676124,0.674732633287601
-10,grasp,12m,PC,Trial1,0.28879727425989,0.635527006797604,0.339467546389548,0.375503309702314,0.746570254491959,0.572539627419374,0.644552658420638,0.365893293594062,0.58696150383509,0.872214307984405,0.490275636695567,0.587224205294031,0.607256057736374,0.597316178153941,0.654540329683502,0.603292473446621,0.58480237523687,0.444334262963995,0.69288530553822
0,grasp,12m,PC,Trial1,0.282185601073405,0.623379247035415,0.32906358080188,0.373751540191855,0.744463188279717,0.583911924817096,0.648420284904259,0.369825766253661,0.575981935075629,0.866037625584098,0.464307569985436,0.570170328690761,0.58792560562193,0.592724655206049,0.652212909968433,0.617270687812433,0.586454356145814,0.464030312814212,0.710705656223274
10,grasp,12m,PC,Trial1,0.276921706070678,0.610069224429227,0.322420746170458,0.37177590707574,0.737282936483588,0.594248688950704,0.651627502489088,0.373939942619743,0.562847063864717,0.858613974155716,0.440145713737249,0.552421336212019,0.563729958334366,0.589465942282251,0.648926160283061,0.633084799345572,0.58909734412162,0.483859744780653,0.727656642982569
20,grasp,12m,PC,Trial1,0.274188763310737,0.595306171564218,0.319414044143499,0.370289849620807,0.724997869389989,0.600968368558266,0.651793026578963,0.378260168608147,0.548469515276045,0.850171391125991,0.418511810109155,0.533666569453661,0.536031794703448,0.587321953125081,0.644776891231258,0.650646941061978,0.592458608771671,0.502615573739724,0.742937034775661
30,grasp,12m,PC,Trial1,0.274109897801006,0.577606022532943,0.319942271142026,0.371230096518996,0.710942046771375,0.605993424684841,0.649265697876717,0.38360638249534,0.533267882283015,0.841005337171068,0.400010325915038,0.519162424786633,0.507503001256864,0.586435866619537,0.639615066377874,0.669816757782569,0.597004148002737,0.520798705861262,0.755829339889538
40,grasp,12m,PC,Trial1,0.276093358306874,0.557525931078719,0.326643396133667,0.374783147430013,0.696394597553824,0.608670528178139,0.645080251767904,0.389590237781004,0.517310638644706,0.831480413493101,0.385095270471712,0.507362748490511,0.479823725490776,0.587966998705844,0.633273745883471,0.690326655748079,0.602611323741186,0.53842048110525,0.764741099564886
50,grasp,12m,PC,Trial1,0.278296461200672,0.536297823270874,0.33813514560089,0.379356479431282,0.681849800783287,0.609172825480499,0.639595000249493,0.3968966652796,0.500547882288302,0.822006809837183,0.373984191647769,0.496314175068541,0.454125230315883,0.591480278243162,0.625662743168561,0.711696577353355,0.608617619397438,0.555089800074144,0.768845438281149
60,grasp,12m,PC,Trial1,0.280570234609133,0.514215360227483,0.3523756458998,0.384810840893085,0.667973328665293,0.607167250901784,0.633163120271318,0.404613512630695,0.48286186446935,0.812933315467795,0.366582652918985,0.486348515399507,0.431640630420848,0.595381399774245,0.61673617159664,0.733285054388816,0.614071976732596,0.570278677801662,0.770853425396089
70,grasp,12m,PC,Trial1,0.284629442670154,0.491369934290104,0.367646039935815,0.391332834404108,0.655684856423526,0.601869687455781,0.626149519655556,0.412231294634196,0.464071560907135,0.804420531941955,0.362338897734641,0.477150772339826,0.411856240267193,0.599251628215,0.606437606581737,0.754403668687257,0.617958163679488,0.583281889724327,0.771402353510705
80,grasp,12m,PC,Trial1,0.290093600055169,0.467784617856364,0.382006905769714,0.399702330598434,0.644568327283916,0.594608837846671,0.618917785430767,0.420668962715158,0.443847426304933,0.79648083986637,0.361667239336075,0.466730846378091,0.389918968891738,0.603375542230928,0.5947266925118,0.77426271222923,0.619496202811618,0.591319861463861,0.770748870452746
90,grasp,12m,PC,Trial1,0.298044511489968,0.443704311132047,0.394815083486578,0.411296416028168,0.634537587998849,0.585756611414813,0.611854802057606,0.429700193518226,0.421808608695567,0.78905355086487,0.364566631227628,0.453105466960187,0.365776775082494,0.60890716507758,0.581695124635885,0.791884984939421,0.619509474793594,0.597058000355655,0.768936479105973
100,grasp,12m,PC,Trial1,0.309733633568772,0.419597717776626,0.405794717609248,0.424620345989966,0.625722430681156,0.577062723913858,0.6055361529708,0.439254735628256,0.398189987517481,0.781492651190636,0.370270859773638,0.438167591685896,0.341552861878267,0.615825791191745,0.567656340392249,0.806340920141051,0.615024209633928,0.604357801576505,0.765747499471335
110,grasp,12m,PC,Trial1,0.32496395362141,0.395920727977627,0.414890208661459,0.436983385169728,0.618163927389478,0.574453765188388,0.600519817737837,0.448954341036126,0.373920824474993,0.772518476894361,0.377967913559559,0.423148522821543,0.318865649446928,0.622075098322322,0.553196748128893,0.81713023686421,0.605757835363719,0.616662671644078,0.758583624139486
120,grasp,12m,PC,Trial1,0.344126539993834,0.372694440796343,0.424850189394654,0.448856682393778,0.611837109353982,0.574436017358561,0.59676673855605,0.458585408451388,0.351695278537293,0.763285949893825,0.386849685347527,0.409428080739731,0.299273657475304,0.625860307452393,0.539703907037365,0.824125999669118,0.594367995391959,0.630477794862735,0.748502313072085
130,grasp,12m,PC,Trial1,0.366577945817456,0.350005583474824,0.434480693734139,0.460626033430728,0.606675217870901,0.574317616558422,0.593237175815538,0.46801447599547,0.333072435317334,0.753661307874219,0.39613252898392,0.399750437535052,0.284094115139595,0.627430573618521,0.529927851134568,0.827384666364522,0.58024040527742,0.644381208309565,0.736393936976593
140,grasp,12m,PC,Trial1,0.389443988402515,0.328482749479585,0.441456484855041,0.472977133783983,0.602562368316193,0.573665335654622,0.59170153876654,0.477108383257945,0.317012041396922,0.743484796450568,0.404745236855659,0.39543807762281,0.274023001031335,0.626692772881004,0.52289034532448,0.826867213872186,0.5632229709262,0.657925269913986,0.722621836417858
150,grasp,12m,PC,Trial1,0.411438725522208,0.309669187898842,0.445651001340112,0.485250938473479,0.599323736705599,0.572324381073426,0.593738905025068,0.482257159168687,0.304564503635919,0.732526318329567,0.412822522345444,0.396412854782715,0.26881105617145,0.623495182723058,0.517675549870408,0.823639433469944,0.546461629618847,0.670930245990703,0.707392955609125
160,grasp,12m,PC,Trial1,0.431295997756426,0.29613410499186,0.448114489117859,0.497260252766878,0.596751845720103,0.570302323638306,0.598352911378051,0.486796866136848,0.298830255805652,0.720251171012698,0.420790174921573,0.398424827731327,0.268714335870593,0.618299810800364,0.513877273930618,0.817986643134113,0.531381099126502,0.683287046588595,0.690775282114687
170,grasp,12m,PC,Trial1,0.450651652774109,0.285905710449787,0.448649250911265,0.508232363675838,0.594661193765481,0.567579366321641,0.604274115246269,0.49207119186986,0.297914186127944,0.707481339260327,0.42880698518593,0.39748882918091,0.271589180302038,0.608809041613814,0.511237210658218,0.810511150521462,0.517788160125401,0.694787644624438,0.672827060407799
180,grasp,12m,PC,Trial1,0.469188062483789,0.277420401084362,0.447031509774904,0.514369144048369,0.592932121336892,0.564172880287376,0.610808535248796,0.49804975479489,0.301035815945086,0.697468869991887,0.437491435720743,0.395639851334977,0.27567572187398,0.598548096950624,0.509595431171871,0.802687283027698,0.505833245789067,0.705073252648054,0.653812961833807
190,grasp,12m,PC,Trial1,0.485840811529931,0.272405115528286,0.443263974853467,0.517190373851498,0.591528973372552,0.562459831406085,0.61755407393236,0.50387741797149,0.307507868274735,0.689141629903968,0.448693194530663,0.393770347819436,0.280000280871372,0.590508401551959,0.508210197635079,0.795450668633202,0.496214809196847,0.713525982406158,0.634424306309074
200,grasp,12m,PC,Trial1,0.499123403169893,0.267001979348888,0.435876897868626,0.519933911282398,0.590492293599699,0.561368113228494,0.624186113769269,0.508099550701264,0.316461396067507,0.681450136290383,0.461780830191176,0.394320653695859,0.283956397533052,0.585027355165313,0.504766169660512,0.791144250235145,0.490025534701942,0.719933496280788,0.615451315073502
210,grasp,12m,PC,Trial1,0.50784794068044,0.262158306195494,0.425601608156766,0.521885584036713,0.589907685028986,0.558090996342696,0.628735739302894,0.509262795611222,0.326877325218681,0.674359149052985,0.475694549826257,0.39934591313672,0.287575916107897,0.581811926596125,0.499222256302287,0.788878830876357,0.486447527200463,0.722303325586947,0.597453083367712
220,grasp,12m,PC,Trial1,0.51047482393511,0.259087534200952,0.416509834539882,0.523305397306296,0.589861363154649,0.554779760608026,0.632053868027154,0.508742082828405,0.337886346412072,0.666268205863471,0.490052769256149,0.413006275159961,0.290834700099225,0.58112422644268,0.49110954426086,0.787142461816699,0.487487224746003,0.720143822386245,0.580855250931083
230,grasp,12m,PC,Trial1,0.506301392513281,0.258244433918781,0.410792784157228,0.525119138150333,0.590394678530642,0.55206026734718,0.634806546345933,0.507657207161731,0.348833231934353,0.659894649297038,0.504272681222352,0.432893117072791,0.293484746233206,0.584338220060413,0.481972820657804,0.785457834741942,0.488376156327041,0.713205115471456,0.56606968815835
240,grasp,12m,PC,Trial1,0.499803034827957,0.2599070505064,0.406346685880487,0.526934907321453,0.591469637901891,0.549812191617446,0.637345558587352,0.504754196255805,0.358942745807936,0.655205159678809,0.518687493033007,0.456036869820188,0.294864263556025,0.589016189179704,0.47311043308463,0.783496857586918,0.487229196223317,0.699678870026523,0.553571965220028
250,grasp,12m,PC,Trial1,0.492598223383395,0.264647194513966,0.401654139037627,0.528253777997619,0.592999299155816,0.547540222099106,0.640435799594702,0.498978541790808,0.366811748691714,0.652022269205076,0.533510107035402,0.481500087002284,0.293832898890532,0.594093978540265,0.465266768169058,0.780888233230342,0.48497240086667,0.678122067486408,0.543740783555126
