Time,Condition,Age,Cluster,connect_overtime_LA_EEG_12_P04_CTS_MTH_chanpair_12m.mat,connect_overtime_LA_EEG_12_P05_CTS_MTH_chanpair_12m.mat,connect_overtime_LA_EEG_12_P06_CTS_MTH_chanpair_12m.mat,connect_overtime_LA_EEG_12_P07_CTS_MTH_chanpair_12m.mat,connect_overtime_LA_EEG_12_P08_CTS_MTH_chanpair_12m.mat,connect_overtime_LA_EEG_12_P10_CTS_MTH_chanpair_12m.mat,connect_overtime_LA_EEG_12_P11_CTS_MTH_chanpair_12m.mat,connect_overtime_LA_EEG_12_P16_CTS_MTH_chanpair_12m.mat,connect_overtime_LA_EEG_12_P17_CTS_MTH_chanpair_12m.mat,connect_overtime_LA_EEG_12_P19_CTS_MTH_chanpair_12m.mat,connect_overtime_LA_EEG_12_P20_CTS_MTH_chanpair_12m.mat,connect_overtime_LA_EEG_12_P21_CTS_MTH_chanpair_12m.mat,connect_overtime_LA_EEG_12_P22_CTS_MTH_chanpair_12m.mat,connect_overtime_LA_EEG_12_P23_CTS_MTH_chanpair_12m.mat,connect_overtime_LA_EEG_12_P24_CTS_MTH_chanpair_12m.mat,connect_overtime_LA_EEG_12_P25_CTS_MTH_chanpair_12m.mat,connect_overtime_LA_EEG_12_P26_CTS_MTH_chanpair_12m.mat,connect_overtime_LA_EEG_12_P27_CTS_MTH_chanpair_12m.mat,connect_overtime_LA_EEG_12_P28_CTS_MTH_chanpair_12m.mat
-1500,Grasp,12m,Parietal,27.7107136536789,29.8224696071785,18.8683691111912,13.9281666897705,37.4953684600128,14.9298842043462,18.4002575948329,8.20224028828618,22.4985490306458,17.8711229630964,17.5493826730649,20.9103204509853,19.639702245481,29.4567634581212,26.497762134287,21.418822479819,22.2637637963689,18.9100642715353,12.6725166225769
-1498,Grasp,12m,Parietal,27.7374657710358,29.790895080235,18.8519679187937,13.9482257445931,37.4585741350785,14.9444395268423,18.5106256116673,8.17851197394615,22.4564801269096,17.877294073018,17.5709500620206,20.9242170282684,19.587462106153,29.4544322085169,26.532823703815,21.5564262304904,22.3233637510987,18.8883655239417,12.6954823608742
-1496,Grasp,12m,Parietal,27.7663524586623,29.7583467389261,18.8397553246206,13.9713294938145,37.4221311067583,14.9596646111941,18.625270375806,8.15524567111019,22.4117199478547,17.8830041161003,17.5914400908627,20.9365566781126,19.5339017002069,29.453697725423,26.5638269840478,21.6979820822664,22.3831297577872,18.8639394874738,12.7187178501278
-1494,Grasp,12m,Parietal,27.7971149036336,29.7250356546585,18.8304289360889,13.9977070301193,37.3872171888833,14.9756322490125,18.7443048127083,8.13264462821569,22.3651683626113,17.8884391220477,17.6103956597309,20.9471597303136,19.4792939832042,29.4544077217372,26.590441322136,21.8487826459343,22.4427772561317,18.8368863351791,12.7419697325307
-1492,Grasp,12m,Parietal,27.8301071301807,29.6913934805359,18.8228818907366,14.0278916969369,37.3536442261159,14.9920106915142,18.8654981166214,8.11100526117307,22.3162317778851,17.8940596847237,17.6271167793208,20.9559430842789,19.4240108258183,29.4564334076573,26.6125297616608,22.0053606040028,22.5019576831633,18.8074088555148,12.7649301277265
-1490,Grasp,12m,Parietal,27.8648297364778,29.6580821966587,18.8168970309231,14.0623938087983,37.3208701919333,15.0082887055326,18.9873520895942,8.09065520687504,22.2645417714317,17.9003740019103,17.6416760153611,20.9629253027827,19.3683574616388,29.4596367834833,26.6300629549443,22.1659305832902,22.5603325212603,18.7758405604859,12.7874470381013
-1488,Grasp,12m,Parietal,27.9014859764094,29.6264728615496,18.8121401414461,14.1014865151431,37.2891765480954,15.0240974686119,19.1090998304814,8.07197255558089,22.2102668745055,17.9084704924226,17.6542128694515,20.9683201199902,19.3127916433944,29.4639210424051,26.6431441638368,22.3325625784367,22.617622227606,18.7426566814313,12.8094386560431
-1486,Grasp,12m,Parietal,27.9401764625476,29.5962894613718,18.8072519186909,14.1445407132493,37.2589354826178,15.0392217713605,19.230213369197,8.05536426494354,22.1534919422711,17.9180820647141,17.6649072263825,20.971982895833,19.2572598532843,29.4694764024721,26.6525151613439,22.5045472651517,22.6736137105354,18.7081028396859,12.8307424541082
-1484,Grasp,12m,Parietal,27.9795822010174,29.565636173258,18.801478712699,14.1906845459559,37.2305741699585,15.0535820716956,19.3502633563871,8.04121648004654,22.0942475873637,17.9292983711659,17.6739694338609,20.973786574576,19.2014238722619,29.477198605168,26.6585710143113,22.6804837686254,22.7281602700396,18.6722240215621,12.8513412398443
-1482,Grasp,12m,Parietal,28.0192909375641,29.5344850018739,18.7944264465005,14.2396846644797,37.2040692579391,15.0672007681406,19.4688114391567,8.02891276201428,22.0326084432874,17.9411341969432,17.6816828594404,20.9738262625616,19.1454023684096,29.4866836283271,26.6615229159096,22.8606564361177,22.78117710832,18.6349468657491,12.8714858724262
-1480,Grasp,12m,Parietal,28.0589204042329,29.5028555258021,18.7858375265947,14.2915445020604,37.1795254157161,15.0800030929382,19.5857245865817,8.01831838728714,21.9687304521576,17.9539952217395,17.6889597085562,20.9725141528918,19.0897635831839,29.4974329306664,26.6616735834945,23.0445304370885,22.8326451379428,18.5960919891542,12.8903552162335
-1478,Grasp,12m,Parietal,28.0981482555373,29.470914064888,18.7755440702272,14.3469556842434,37.1576019667687,15.0918321316685,19.7020459428981,8.00949316548205,21.9028343722887,17.9676490214306,17.696471768064,20.9701078643262,19.03477528131,29.5092396117525,26.6578690725154,23.2312568850176,22.8826220078656,18.5556501632696,12.9079234445903
-1476,Grasp,12m,Parietal,28.1368643315941,29.4391005569514,18.7634769815878,14.4072589041586,37.1390334480506,15.1026451178986,19.8159368309957,8.00226571647903,21.835201248857,17.9815207182802,17.7029878856452,20.9666984917012,18.9796952938006,29.5220248571051,26.6501577916867,23.4203722253371,22.931350569607,18.5137573614579,12.924106868174
-1474,Grasp,12m,Parietal,28.1752032430012,29.4076862751937,18.7496586707872,14.4705384332226,37.124015754819,15.1125099473821,19.926471114167,7.99737587844326,21.7661950098234,17.9955138803247,17.7081534475427,20.9625010104059,18.9237471777112,29.5359082245872,26.6387078867467,23.6115425007717,22.9795803439758,18.4706557505904,12.9390012814776
-1472,Grasp,12m,Parietal,28.2133809824375,29.3765479290959,18.7342178397273,14.5367517438889,37.1135085143464,15.1215922953744,20.0325912646433,7.99429035197702,21.6967334497804,18.0097223315103,17.7119164606766,20.9570492211857,18.8667307948765,29.5513236766754,26.6238783762278,23.8044165585368,23.0275630990807,18.4265701555303,12.9522348840297
-1470,Grasp,12m,Parietal,28.2513522451434,29.3454601833155,18.7174052804993,14.6058220041866,37.1059565503176,15.1301515988842,20.1334867286763,7.99295633931048,21.6285702766152,18.0243708299874,17.7143115526513,20.9501345508945,18.8087329756611,29.568452654984,26.6062933834586,23.9985539039898,23.0752215940389,18.3820323069021,12.9634445134315
-1468,Grasp,12m,Parietal,28.2889260239542,29.3145329695711,18.6997432916384,14.6776483778619,37.1004526410842,15.1385661871338,20.2286223717206,7.99389460209475,21.5608077181582,18.0398589809804,17.7156442439622,20.9418003018776,18.7501490571318,29.5872166258865,26.5864869268662,24.1932806776655,23.1230863390123,18.3386557933692,12.9725350247857
-1466,Grasp,12m,Parietal,28.325967230058,29.2837988435579,18.6851239770256,14.7521616804379,37.0967192449841,15.1471983292609,20.3175832268233,7.99676307655437,21.4934684888955,18.0567654116249,17.716650312183,20.9321683154415,18.6910534742428,29.6085762957718,26.5642246377802,24.3875622630036,23.1707820257758,18.2949475053237,12.9794690543614
-1464,Grasp,12m,Parietal,28.3624789220183,29.2531155187126,18.6720254732097,14.8295891829017,37.0947412333723,15.1562708320955,20.4000390982808,8.0010047847833,21.4270094348175,18.0754613906179,17.7167875515525,20.921374049293,18.6311111912756,29.631936896707,26.5392663071166,24.5802118649299,23.2177989542885,18.2510474770958,12.9842595322037
-1462,Grasp,12m,Parietal,28.3984830311717,29.2222795815413,18.6588102914942,14.9104228748729,37.0945217338354,15.1660154543365,20.4757222896654,8.00641490898385,21.361623129671,18.0957026210572,17.7154626437876,20.9095040523912,18.5702028018685,29.6566289898515,26.5116922647055,24.7701261467814,23.2641079713588,18.207149112218,12.9869858413266
-1460,Grasp,12m,Parietal,28.4340828370078,29.1911462296693,18.6450241484926,14.9944730419727,37.0959403800636,15.1768250938872,20.5444213358416,8.01268916733963,21.297756817822,18.117308511936,17.7125145508243,20.8966635523834,18.5084042568302,29.6818342649751,26.4816783287644,24.9563590288564,23.3105394064536,18.1634220715305,12.9880230755712
-1458,Grasp,12m,Parietal,28.4693118688368,29.1596602461059,18.6304211987346,15.0806199310332,37.0989820133461,15.1908834356408,20.605968363573,8.01962429183153,21.2362953952416,18.1402403110903,17.7078685850387,20.8830884465151,18.4454951655355,29.7074349489138,26.4493897878933,25.1380988122865,23.3576242771202,18.1199604805491,12.9876829318979
-1456,Grasp,12m,Parietal,28.5037340625318,29.1278593468471,18.6149082454998,15.1678753090052,37.1037649082185,15.2084749092544,20.6602451684205,8.02706105042457,21.1770077219213,18.1643005401401,17.7014868331228,20.8693364284001,18.3813444715702,29.7331130074391,26.4150815834415,25.3146534954721,23.4045132347646,18.0781265536101,12.985766603331
-1454,Grasp,12m,Parietal,28.537839988518,29.0965160101285,18.598525620273,15.2578680939493,37.1104928848328,15.2286802229619,20.7071664886479,8.03484938792609,21.1211448178685,18.1889237549515,17.6933474574495,20.8558886505087,18.3164421624867,29.7584978514709,26.3789972106465,25.4854164337516,23.4511376331691,18.037361041355,12.9825082176993
-1452,Grasp,12m,Parietal,28.572098841904,29.0655419628445,18.5814850920046,15.3487039358307,37.1194987467905,15.2509125040004,20.7466896184679,8.04290688703994,21.0684749834981,18.2149244546097,17.6834494895549,20.842565139955,18.2515800786898,29.7830895086774,26.3414759221996,25.6498546724092,23.4974642709196,17.9973983639615,12.9779889477419
-1450,Grasp,12m,Parietal,28.6056958943471,29.0343790152566,18.5642829343915,15.4391883929306,37.1312941672592,15.2746317813158,20.7788054196749,8.05130770229995,21.0182404496773,18.242589287274,17.671814007422,20.8294683182408,18.1873353320071,29.8064287016764,26.3041430543933,25.8075040404728,23.5444001423786,17.9585676730792,12.9720181036735
-1448,Grasp,12m,Parietal,28.6389264740402,29.0030892990444,18.5477784060186,15.5290611540581,37.1467164191969,15.2996345380071,20.8035328665507,8.06005209613485,20.9705495935948,18.2704553954637,17.6584722641416,20.8164913857889,18.1230958275266,29.8282556316272,26.2668796982809,25.9579493127074,23.5910390194487,17.9212306851007,12.9647074436188
-1446,Grasp,12m,Parietal,28.672104895757,28.9718018361859,18.5326179778269,15.6181534808503,37.1670772745103,15.3263497016233,20.8209181086986,8.06895459399532,20.9253070722497,18.2982081218687,17.6434752037301,20.8035704702647,18.0584152685544,29.8484952189194,26.2281491792336,26.1008231110015,23.6370708116585,17.8849077679872,12.9572460695641
-1444,Grasp,12m,Parietal,28.7045409267381,28.9407119881477,18.5194978525938,15.7063902466257,37.1935504310604,15.3545948319694,20.831036570872,8.07792280080747,20.8823678302261,18.3255574041703,17.6268982667313,20.7910419615541,17.9936726472664,29.8679950651284,26.1877195584135,26.2358097508685,23.6823466959918,17.8490446856866,12.9489543084068
-1442,Grasp,12m,Parietal,28.7353783980302,28.9101699979597,18.5074614325359,15.7936972998033,37.2248898036689,15.383701477798,20.833982588661,8.08687595794094,20.8415531902999,18.3522589369565,17.6088765931231,20.7786975158191,17.9288245164998,29.8861729746344,26.1466895501322,26.3626311015962,23.7266539215141,17.8132937357613,12.9400347311286
-1440,Grasp,12m,Parietal,28.7641525877748,28.8810483780144,18.4959114070039,15.879895008852,37.2604054291891,15.4134204837874,20.829870938014,8.09573298533677,20.8032978405142,18.3781396529676,17.589783380812,20.7665934279785,17.863660525204,29.9023226494274,26.1076822393722,26.4810461566855,23.7697501779527,17.7774184517952,12.9305479698161
-1438,Grasp,12m,Parietal,28.7905913160883,28.8531735686612,18.4847401105842,15.9648399971577,37.3002681301319,15.4437281801839,20.8188387057444,8.10466844136238,20.768388611181,18.4031364577634,17.570283440226,20.7550591465325,17.7985072653504,29.9164253476805,26.0694410321854,26.5908503991044,23.8112631086697,17.741266559053,12.9205091304708
-1436,Grasp,12m,Parietal,28.814630829645,28.8268183052568,18.4740330779466,16.0485299214473,37.3445844716541,15.4747869928637,20.8010490863027,8.11334239758181,20.7354525451479,18.4271092228166,17.550148478053,20.7450481290732,17.7336082350558,29.9286536566014,26.0307979167459,26.6918782036477,23.8507933060891,17.7047595307171,12.9098954246741
-1434,Grasp,12m,Parietal,28.8366571552686,28.8022902055848,18.464831089763,16.1309935925317,37.3928538448903,15.507030751309,20.7766887028427,8.12164736959589,20.7040948675614,18.4499499307229,17.5289674431208,20.7361569927916,17.6707508135572,29.9390816652981,25.991778996996,26.7839937718211,23.888036945691,17.6678828995809,12.8987452770417
-1432,Grasp,12m,Parietal,28.8562030199831,28.779897333843,18.4592387424754,16.2121720885685,37.4450361048512,15.5407370652374,20.7459728916257,8.12969401279811,20.6740502275397,18.4718739594169,17.5066530549252,20.7287679868694,17.6094145477659,29.9479289599559,25.953003450952,26.867095279882,23.9227807670577,17.6306867445649,12.8871939224898
-1430,Grasp,12m,Parietal,28.8729345980984,28.759858915571,18.4546331162039,16.2918637465571,37.5012160617407,15.5757827045641,20.7091388425003,8.13776769773116,20.6451453257036,18.4935118127224,17.4830747209606,20.7235925437065,17.5496661368456,29.9556206026362,25.9154693501701,26.9411085900009,23.9548670961731,17.5932982404806,12.8754491391462
-1428,Grasp,12m,Parietal,28.8866742261338,28.7422808362559,18.4508148108425,16.3699583875546,37.5619651847837,15.6122794474654,20.6664522399317,8.14658857080162,20.6172698283273,18.5136951674627,17.4580584370576,20.721270770122,17.4902283020987,29.962392275416,25.8779969687596,27.0059936694308,23.9841822366862,17.5560596210514,12.8636854941495
-1426,Grasp,12m,Parietal,28.8971476003609,28.7273874047491,18.4482250166413,16.4461220555882,37.6269384864678,15.6504176692475,20.6182000840836,8.1554448362521,20.5903744364937,18.5321559657979,17.4314955963837,20.7226273594391,17.4309683290839,29.9680908840114,25.8399106331086,27.0617387826244,24.0106442993761,17.5199614258285,12.8518945369414
-1424,Grasp,12m,Parietal,28.9041321405101,28.7154460278499,18.4472708514143,16.5197426017611,37.6951497614601,15.6899213269795,20.5646932416784,8.16446576571734,20.5644899375474,18.5488921498782,17.4033595443748,20.7277897062452,17.3720340410255,29.9732178716672,25.8010291285237,27.1083614222358,24.0341958773816,17.4847760669436,12.839908401591
-1422,Grasp,12m,Parietal,28.9075770797099,28.7064804730573,18.4480312622333,16.5906791631178,37.7662957450893,15.7305303623724,20.5062648440547,8.17453309146599,20.5397620922554,18.5640183607784,17.3736892697236,20.7371529144591,17.3138182546579,29.9775351876933,25.7615115578754,27.1459051338544,24.0548850768538,17.4503517512638,12.8275746134351
-1420,Grasp,12m,Parietal,28.9075522412848,28.7003067571864,18.4503812435562,16.6595409468311,37.8402047540086,15.7721478508369,20.4432763739519,8.18523151364382,20.516603447645,18.5777913768704,17.3425822491099,20.7506089143681,17.25706287282,29.9808732029632,25.7215874583721,27.1744407361493,24.073515458911,17.4162754160497,12.8149093380031
-1418,Grasp,12m,Parietal,28.9042408082464,28.6967955856539,18.4542115278778,16.7253799354234,37.9167744718021,15.8147192901816,20.3761220479106,8.19604327946777,20.4952459857642,18.5906854488684,17.3101927149335,20.7673767079341,17.2018066328229,29.9824545774759,25.6812728898111,27.1940692959237,24.089394727964,17.3826070386156,12.8020122093891
-1416,Grasp,12m,Parietal,28.8979274790732,28.6959149979325,18.4595432569085,16.7879467154025,37.9959404617343,15.8582509604573,20.3052205141313,8.20695925445079,20.4756072937606,18.6033604700432,17.2766796874931,20.7874432071042,17.1480767714932,29.9823855299927,25.6403831300567,27.2049169864624,24.1023571690682,17.3487297867594,12.7888156924985
-1414,Grasp,12m,Parietal,28.8889947511299,28.6976272512053,18.4666478858511,16.8471602765332,38.0777076386852,15.9029113103431,20.2309838016718,8.2182022575993,20.4574980300336,18.6157523824636,17.2421167346024,20.8109349420876,17.0959460288888,29.9805835692823,25.5991645582858,27.2071302219006,24.112411014881,17.3146233201475,12.7752902590365
-1412,Grasp,12m,Parietal,28.8779864751649,28.7019559748379,18.4760451856233,16.9029443855605,38.1620918678097,15.9489326943986,20.1537960914882,8.2301335228767,20.4408275354465,18.6273352005272,17.2064979877972,20.8366278685146,17.0454454431842,29.9774927620541,25.5584015076998,27.2008940186165,24.1195508652956,17.2804962560243,12.7614792084323
-1410,Grasp,12m,Parietal,28.8657065331954,28.7095319791501,18.4881228303885,16.9552037980587,38.2489741364652,15.996147878189,20.0739746137302,8.24226457454574,20.4257364507784,18.6378405833652,17.1698117815645,20.8643987207347,16.9968086912732,29.972796289807,25.5169773913427,27.1864078770101,24.1237177539409,17.2467262670652,12.7473734992757
-1408,Grasp,12m,Parietal,28.8517564724204,28.7205696674453,18.502932508712,17.0038332246687,38.338325509006,16.0441266907407,19.9918052285569,8.25563831899242,20.4114797501627,18.6471275281849,17.1321101150786,20.8942146539579,16.9508907222171,29.9664574468688,25.4750986403779,27.1639064152127,24.1248399484165,17.2139567490415,12.7329088383255
-1406,Grasp,12m,Parietal,28.8363931697983,28.735538572537,18.5203157612998,17.0487041164592,38.4304026070556,16.0925144437302,19.9075735903753,8.26944850027628,20.3977154863734,18.6551932103697,17.0935167045968,20.9264473307281,16.9080473773802,29.9588782673751,25.4329754846812,27.1336428057458,24.122855541137,17.1831963485827,12.7180373463913
-1404,Grasp,12m,Parietal,28.8201697376673,28.7534782424282,18.5402026763182,17.0896892930873,38.5258710189851,16.1410583984921,19.8216024298973,8.28339166457208,20.3844769181494,18.6620205976528,17.0543053245239,20.9623927815664,16.8685940492183,29.9497555009854,25.3907557185914,27.0959007075394,24.1177620214834,17.1537881210804,12.7027462839149
-1402,Grasp,12m,Parietal,28.8028242106236,28.773648655241,18.5627107107409,17.1266686303511,38.6275321944603,16.1895686899926,19.7342570266164,8.29732222674469,20.3718147901991,18.6675031861449,17.0153437941805,21.0001410384505,16.833096702389,29.9388788376126,25.3484876849888,27.0509901745385,24.1096720846419,17.12556440079,12.687050711692
-1400,Grasp,12m,Parietal,28.7836002981651,28.7956714061531,18.5880845740797,17.1595167629711,38.7347091154196,16.237904900167,19.645944049911,8.31093334692412,20.3598034891831,18.6720311562721,16.977508406667,21.0392180204016,16.8016002481003,29.9263311700624,25.306182636549,26.9992542859198,24.0989604467799,17.0984932419687,12.6710208450634
-1398,Grasp,12m,Parietal,28.7624243499116,28.8193388660815,18.6171164154192,17.1880885914103,38.8458730073275,16.2861501075634,19.5570948174369,8.32398997484572,20.3485685797138,18.6759112853911,16.939745799884,21.0796793708837,16.773552953551,29.9122936729301,25.2639898119354,26.941052442814,24.085957324202,17.0724948949023,12.6547778494015
-1396,Grasp,12m,Parietal,28.7388440708649,28.8447651441417,18.6493095351654,17.2123651089434,38.9594687800112,16.3352997351311,19.4681739540121,8.33640479745051,20.3382641141647,18.6786569792561,16.9016432384462,21.1211927250335,16.7487997538957,29.8970109103468,25.2230960012529,26.8767873094684,24.0703383932249,17.0474926755691,12.6385079787488
-1394,Grasp,12m,Parietal,28.7124487786233,28.872800091002,18.6840006417608,17.2326579617005,39.0757743576745,16.3840084638641,19.3796747621119,8.34812783856458,20.3293453012723,18.6802114961693,16.8636720515541,21.1632988768662,16.7269098159143,29.8807928233872,25.1848315897177,26.8068981339322,24.0518415928307,17.0233989292697,12.6230324221045
-1392,Grasp,12m,Parietal,28.6833015628068,28.903209226744,18.7209747125713,17.2487226039457,39.194716957245,16.4322839949682,19.2921263502277,8.35913422584301,20.3231606460388,18.6814269235637,16.8258955280978,21.2057504194121,16.7073692118157,29.8638758936521,25.1475836868277,26.7318773295002,24.0307993816207,17.0003024400311,12.6094006942454
-1390,Grasp,12m,Parietal,28.6516861653052,28.9353409709685,18.7594889855082,17.2605263374275,39.3146278337807,16.4803077680002,19.2061180720612,8.36933943943353,20.3192754557915,18.6822927859044,16.7876908736948,21.2484890807437,16.68987963648,29.84600185328,25.1108831398716,26.6523112315862,24.0070204198292,16.9795385359837,12.5969408962993
-1388,Grasp,12m,Parietal,28.6178928656445,28.9693402118356,18.7990882401855,17.2683177723014,39.4348305334491,16.5280490187608,19.1223123335528,8.37867293889193,20.317884831784,18.6827984157684,16.7490115901018,21.2920307102737,16.6743446794862,29.8269285456764,25.0749178958824,26.5689223459475,23.9801909091886,16.9597262182957,12.5854142507578
-1386,Grasp,12m,Parietal,28.5819671036505,29.0051841572808,18.8396792578462,17.2723675777169,39.5559790369015,16.5752227230093,19.0413786015602,8.38710402829718,20.3191997708751,18.6831347454347,16.7099646254499,21.3362897006916,16.6608514601063,29.806707230734,25.0400899865973,26.4825759782483,23.9503038524938,16.9401357729738,12.5750351777385
-1384,Grasp,12m,Parietal,28.5437836294621,29.0429536345215,18.8811322703688,17.2728546630937,39.6777055704129,16.6218128641013,18.963743132887,8.39470427938825,20.3232282029026,18.6829847486052,16.6707022172335,21.3817901152064,16.6496966618681,29.7853148080645,25.0067970632278,26.3941665705884,23.9174089556202,16.920484070706,12.5659264018863
-1382,Grasp,12m,Parietal,28.5033698478303,29.0823399179592,18.9230151230707,17.2709268013742,39.7966840006674,16.6683996685055,18.8895021224757,8.40156081282283,20.3297308266705,18.6829618566969,16.6314024295752,21.4272940897995,16.6421789241695,29.7626436379214,24.975359616204,26.3043997087225,23.8815580239064,16.9005126830702,12.5575915145192
-1380,Grasp,12m,Parietal,28.4611672760074,29.1227504676267,18.9647185896512,17.2683933626371,39.9121698316379,16.7145216341813,18.818781883376,8.4076146029525,20.3383401272411,18.6835349984354,16.5922999077256,21.4725841582922,16.6392733091753,29.7385755092126,24.9463299653393,26.2137446356715,23.8428064024479,16.8800492401192,12.5500884533208
-1378,Grasp,12m,Parietal,28.41750143268,29.1637311010968,19.0057257033485,17.2622261901996,40.0235514601587,16.7595207318014,18.7518888224204,8.41287509267914,20.3486185625337,18.6855142026885,16.5536154547243,21.5177294372655,16.6409819586844,29.7128687133495,24.9205361118897,26.1221988094217,23.8012018135714,16.858954424623,12.5435287433316
-1376,Grasp,12m,Parietal,28.3718380899725,29.2050249698971,19.0457122249563,17.2522366569942,40.1304446456506,16.8031388665855,18.6893430114519,8.41738808958553,20.3600584521817,18.6882010067465,16.51538042576,21.5631922502266,16.6470752405069,29.6856848688259,24.8989346328838,26.0294292661873,23.7568074625309,16.8372108239356,12.538183724464
-1374,Grasp,12m,Parietal,28.3239238947226,29.2464647311621,19.08450733059,17.2386538083132,40.2328318329958,16.8452343748558,18.6319242884432,8.42119315267688,20.3721626665996,18.6909198625129,16.4774729006776,21.609883021447,16.6566603510856,29.6571053797428,24.8822758364822,25.9352277876977,23.7096829950693,16.8149096407318,12.5347345072515
-1372,Grasp,12m,Parietal,28.2738034323153,29.2879648319583,19.1220939605729,17.221066647847,40.3304634603017,16.8857944679783,18.5805277667347,8.4244850297459,20.3846298222985,18.693555918743,16.4397844498926,21.6574264757329,16.6696032501707,29.6264796558164,24.8708818823648,25.8396777441479,23.6599242281503,16.7922511376318,12.5334564984394
-1370,Grasp,12m,Parietal,28.2214127259707,29.329476573761,19.1584432370368,17.1994121990167,40.4224978899688,16.9248791382675,18.536131688705,8.4279093571651,20.3974419680037,18.6959202390921,16.4021531690502,21.7065084739959,16.6861142727767,29.5939407486577,24.865471194273,25.7430827782561,23.6076773648509,16.7695011228858,12.5340512617694
-1368,Grasp,12m,Parietal,28.1666311253473,29.3709941003585,19.193335581806,17.1737027103386,40.5084329220196,16.9624947663533,18.498689260051,8.4316040899415,20.4107097525203,18.6977171370322,16.3643034610486,21.7571770254706,16.7064449584517,29.5602717592835,24.8659827806359,25.6459225356875,23.5531953961898,16.7470103165431,12.5365801050781
-1366,Grasp,12m,Parietal,28.1095739054441,29.4128312328266,19.226518928975,17.1440069832842,40.5879815886216,16.9984117142864,18.4686777477042,8.43529418652898,20.4243241707746,18.6987166637073,16.3259593441469,21.808808642051,16.7306913098392,29.524911701455,24.8718725543882,25.5488011310319,23.496925540508,16.7253945105732,12.5410986249528
-1364,Grasp,12m,Parietal,28.0507313621544,29.4561398749639,19.2578191757236,17.1104747682605,40.6609642369829,17.0322818366308,18.4431278454369,8.43860884000244,20.4381941461938,18.698749550586,16.2869267358494,21.8613804270754,16.7606892690225,29.4877199700606,24.8828720411849,25.4522956551489,23.4394020494783,16.7053113963191,12.5476929330978
-1362,Grasp,12m,Parietal,27.9915529317916,29.4998518907578,19.287112418077,17.0733516083002,40.7273012806402,17.0638974535379,18.4219310175339,8.44158301522064,20.4522937776911,18.6976796793032,16.2470893400112,21.9157284527845,16.7956421498588,29.4486230038873,24.8989404619834,25.3569024381445,23.3807404810914,16.687314276118,12.5565043152993
-1360,Grasp,12m,Parietal,27.9315776618904,29.5432699965365,19.3143028060492,17.03295091067,40.7870621940434,17.0931648662527,18.4056742811079,8.44444629728744,20.4664450135343,18.695580900567,16.206392999329,21.9708323415655,16.835008701129,29.4076655918202,24.9204019321612,25.2631547647012,23.3204819623105,16.6712672135827,12.5682117705414
-1358,Grasp,12m,Parietal,27.8709756569078,29.5862495941099,19.3392978781263,16.989617033994,40.8404026594122,17.1199448936603,18.3960869933521,8.44746880723731,20.4806272012463,18.6928835319851,16.1648201831632,22.0265841772681,16.8777042705558,29.3649228947873,24.9471053114112,25.1712965274024,23.2581363495325,16.6568658750571,12.5841332045029
-1356,Grasp,12m,Parietal,27.8102280122921,29.6287251620399,19.3620227223589,16.9437940081546,40.8874476729098,17.1442351051578,18.3923715348804,8.45081042262973,20.4951612561318,18.6889880130705,16.1223915455377,22.0827705238872,16.9226570495656,29.3205476226886,24.9782818932061,25.0814494470782,23.1934700294546,16.6441929340103,12.6038487765215
-1354,Grasp,12m,Parietal,27.7495628222624,29.670615372986,19.3824214524123,16.8960328675169,40.9283503018839,17.166681054517,18.3926545223954,8.455000526695,20.5106300028757,18.6836696809822,16.0791501045637,22.1391946508395,16.9695497263297,29.2747817761519,25.013623385137,24.9939701750708,23.1264109915035,16.6334103495946,12.6279020431761
-1352,Grasp,12m,Parietal,27.6893876881776,29.7122849860058,19.400507718307,16.8468606610288,40.963425207145,17.1864437791719,18.3963328139974,8.4603132424796,20.5277331730273,18.6769372590278,16.0351647697054,22.1960145492239,17.0181688840262,29.2279552805276,25.0526560729328,24.9092558848117,23.0569607258142,16.6246741926906,12.6549634404526
-1350,Grasp,12m,Parietal,27.6304727950312,29.753331471249,19.416478208755,16.7963451795394,40.9933420929274,17.2036915957085,18.4033310757238,8.46665297555865,20.5470876933109,18.6685020198747,15.9905194422114,22.2521298855639,17.0683572475663,29.1803648076552,25.0961262336747,24.8277272974077,22.9850941288935,16.6178991736645,12.6842752985421
-1348,Grasp,12m,Parietal,27.5738721313878,29.7934596449071,19.4310477637716,16.7441620595062,41.0183005167702,17.2189381192791,18.4136890018004,8.4737340939036,20.5688254127558,18.6582203232292,15.9453162315222,22.3077589518517,17.1202008547441,29.132314048934,25.1434146137165,24.7509319438371,22.9107001967149,16.6130978586134,12.7153560277139
-1346,Grasp,12m,Parietal,27.5206121174162,29.8325818169416,19.444598364999,16.6900964514404,41.0376350811394,17.2323098155922,18.4270321811757,8.48132623616559,20.5921884946043,18.6460703990277,15.8996622858811,22.3635354734642,17.1746068722858,29.0841196462224,25.1938342839032,24.6789711531202,22.8335924875776,16.609427377121,12.7479831274916
-1344,Grasp,12m,Parietal,27.4711965518527,29.87066517365,19.4562565513116,16.6341614976096,41.0510895022321,17.2434412448525,18.4427069072661,8.4893505835999,20.6166037473466,18.6321577708569,15.8536687224768,22.4184627659435,17.2305671812497,29.0358448754717,25.2468074061711,24.6110217342903,22.754618279961,16.6067721763273,12.7820185761426
-1342,Grasp,12m,Parietal,27.4261503980296,29.9077722743986,19.4652957325448,16.5764687707389,41.0586175115748,17.2517818649038,18.4602259599683,8.49816147677958,20.641735818567,18.6167291885218,15.8074383386254,22.4726333615353,17.2877730319003,28.9874021143465,25.3019603487759,24.546434186286,22.6729679125649,16.6051288129102,12.8174474466329
-1340,Grasp,12m,Parietal,27.3861275616118,29.9441704597939,19.4712901586491,16.5171385436496,41.0601882864462,17.2567075836183,18.4792997696237,8.50713837614394,20.6673288013542,18.5997678617122,15.7610550527076,22.5258088232569,17.3464322068386,28.9389700437666,25.3587026856759,24.4845972035178,22.588207244581,16.6045215406698,12.8546116582167
-1338,Grasp,12m,Parietal,27.3509448336655,29.9802560773834,19.4739649645284,16.4562703945459,41.0557943469447,17.2578067874104,18.4997771539552,8.51613797445562,20.6937781013886,18.581187851606,15.7145882009571,22.5779533013932,17.4066831226985,28.8905510269029,25.4167837218125,24.4252191504554,22.5003092059698,16.6048301568626,12.8935292252676
-1336,Grasp,12m,Parietal,27.3192375992159,30.015807271324,19.4731048588394,16.3938770826461,41.0454878697916,17.2548545130359,18.5216180828367,8.52547971987874,20.7210688551395,18.5610346332461,15.6681039254747,22.6282717383914,17.4683229218145,28.8421083675318,25.4775182465219,24.3681656165088,22.409287730048,16.6059302632611,12.9345206756976
-1334,Grasp,12m,Parietal,27.2901801715487,30.0505520320616,19.4685238119652,16.3299478093503,41.0294216150955,17.2477491176845,18.5449043685685,8.5348913234862,20.7486741321718,18.5394091504699,15.6217035338981,22.6768228480839,17.5313805676567,28.7940010133207,25.5401403285388,24.313442758872,22.3151956632816,16.6078497006619,12.9769196331665
-1332,Grasp,12m,Parietal,27.2633773024875,30.0844872910765,19.4600588487121,16.2645612892219,41.007846933128,17.2368684544161,18.569847073905,8.54417361163992,20.7763066739011,18.5174473482043,15.5754954394781,22.7238174215569,17.5961109677605,28.7467525230798,25.6034589515992,24.2611807876117,22.2181215610656,16.6107222935945,13.0208631310051
-1330,Grasp,12m,Parietal,27.2387758181899,30.1177649999158,19.4475776747005,16.1979086775109,40.981052760175,17.2232896188256,18.596687223834,8.55391283354824,20.8041265466886,18.4957223226899,15.5293964966039,22.7695690835346,17.6626924081758,28.701204248519,25.6679015255216,24.2119761764853,22.1181886257234,16.6149288015103,13.0673708456626
-1328,Grasp,12m,Parietal,27.2165933298461,30.1506771435775,19.4309912795849,16.1303474920029,40.9493902205329,17.2057685319719,18.6254431641009,8.56339586480195,20.8316957225364,18.4728626838714,15.4831554776274,22.8138307530567,17.7309891930053,28.6575466616368,25.7340890754154,24.1679294819213,22.0155646090518,16.621038192889,13.1154204132335
-1326,Grasp,12m,Parietal,27.1976592598956,30.1835916456234,19.4102484694672,16.0629180655476,40.9133824164618,17.1841788889411,18.6557471697402,8.5726918668304,20.858395343971,18.4490183039169,15.4365480115531,22.8563531700292,17.8008280271537,28.6146522378633,25.8011254340764,24.1278735566731,21.910443158565,16.6287773659761,13.1647134853571
-1324,Grasp,12m,Parietal,27.1830658622349,30.2169182314254,19.385359936354,15.9961415977814,40.8730764985356,17.1584997793173,18.6870403870876,8.58180109163014,20.8839081457082,18.4244035757564,15.3894197536097,22.8970943688368,17.8721193493442,28.5730327395332,25.8684506879481,24.0909746800742,21.8030701399914,16.638686094754,13.2150411571684
-1322,Grasp,12m,Parietal,27.1716001294787,30.2512332791041,19.3563929409117,15.9294036373508,40.8284534004614,17.1287995855136,18.7187954370094,8.59053178395692,20.9080214098333,18.3991440672262,15.3416545125881,22.9359762724078,17.9441760998387,28.5329648227557,25.9358828660288,24.0574330487056,21.6937466623871,16.6517355526124,13.2658409780186
-1320,Grasp,12m,Parietal,27.1626198026289,30.2869775702,19.3234816213076,15.8624902347601,40.7806974527754,17.0958398594704,18.7505898977682,8.59865025194021,20.9306826151244,18.3732873648862,15.2931614124509,22.9729130587615,18.0167243628335,28.4944052238216,26.0033383977472,24.0277426518394,21.5828730184711,16.6670893301468,13.3170693390363
-1318,Grasp,12m,Parietal,27.1559671147375,30.3240304424897,19.2868447902397,15.795302551097,40.7292900859802,17.0600775891173,18.7821058556848,8.60606806444436,20.9519834930094,18.3474759352565,15.2438804448038,23.0077927212387,18.0909244405181,28.4569240621848,26.0706839618225,24.00257938413,21.471047397779,16.6843987417568,13.3687742327106
-1316,Grasp,12m,Parietal,27.1516673766727,30.3623868120706,19.2467864837345,15.7284907971017,40.6744949018568,17.0204835054781,18.8130863668258,8.61279160125295,20.9719471852882,18.3214041401541,15.1937716662054,23.0404343154532,18.1661144169249,28.4199601854492,26.1394717555014,23.982383829702,21.3588493663668,16.7035413673629,13.4212741980447
-1314,Grasp,12m,Parietal,27.1497293537944,30.4023664049543,19.2037253534272,15.6631430476358,40.6165591074383,16.977110526267,18.8433273486274,8.61860885185979,20.9905240577902,18.2947532652693,15.1428230224762,23.0707466315996,18.2416880254664,28.3829417958571,26.2095875376554,23.9674830353314,21.2460500273262,16.7244211678509,13.4734230499119
-1312,Grasp,12m,Parietal,27.1502574078058,30.4443258142223,19.1581759386721,15.5980791433947,40.556558176187,16.9300381149092,18.8726624909811,8.62331292497082,21.0077732169842,18.2673094037101,15.0910440853958,23.0986728579152,18.3168557892119,28.3454832741576,26.279359052929,23.9581028644216,21.1324352990054,16.7462856420925,13.524185534507
-1310,Grasp,12m,Parietal,27.1535475286189,30.4885267858772,19.1106087806713,15.5333946889275,40.4939707881169,16.8792878097097,18.9009548130763,8.62668271293947,21.0239551492623,18.2389840846917,15.0384376213991,23.1238785420384,18.3910273562963,28.3073764772912,26.3475931610968,23.9529875559999,21.0181277713874,16.7691130799972,13.5731686250797
-1308,Grasp,12m,Parietal,27.1601812484791,30.5348202277059,19.0613256348632,15.4691943722525,40.4285650419947,16.8248289953644,18.9280984836163,8.62867302768433,21.0396679095235,18.2098021086237,14.9849592285244,23.1460765346144,18.4638186128271,28.2685930451787,26.4140562307347,23.9509612080058,20.9033683633548,16.7930221055885,13.6201052869359
-1306,Grasp,12m,Parietal,27.1710050963144,30.5832267174065,19.0107330185807,15.4054848042777,40.3609640502358,16.7666428661912,18.9540134057773,8.62929644456344,21.0541658884888,18.1798350557734,14.9304859877994,23.165065364903,18.5350984941812,28.2293832302548,26.4780121014753,23.9515131390913,20.7884438320216,16.8182128035615,13.6647993576847
-1304,Grasp,12m,Parietal,27.1863468797896,30.6342305900231,18.9600857823046,15.3423512560265,40.2924284246659,16.7047800565081,18.9786589712734,8.62859934442138,21.0671598963029,18.1491830614042,14.8748551436074,23.180668324247,18.604945893535,28.1902840726124,26.5402791463556,23.9555457704075,20.6736796186981,16.8448958729706,13.7071207994076
-1302,Grasp,12m,Parietal,27.2068532000513,30.6892710961035,18.9095386847592,15.2799751788536,40.2222116159494,16.6393554307614,19.0020258790237,8.6266352931366,21.0784445512833,18.1179691403638,14.8179124185052,23.1927291508092,18.6735990479728,28.1512577514552,26.599479163096,23.9636633071329,20.5594170163343,16.8730474346244,13.7469905742919
-1300,Grasp,12m,Parietal,27.2330486103292,30.7486004203897,18.8590895833306,15.2181507795431,40.1511480923823,16.5705592481491,19.0241687643866,8.62346000305414,21.0883807610933,18.0863685632263,14.7595510435646,23.2011498330207,18.7408013123461,28.1122862845588,26.6549453370119,23.975929700047,20.4460214141927,16.9025993888667,13.7843937913243
-1298,Grasp,12m,Parietal,27.2651734547891,30.8118345505128,18.8093738515402,15.156853495013,40.0779775683713,16.4987542912617,19.0452147358014,8.61913125425798,21.0961271415236,18.0546362491989,14.6997052456142,23.2070197829651,18.8079325011259,28.0731350040353,26.706460312814,23.9898062349328,20.3338656487767,16.9333606247109,13.8193788693051
-1296,Grasp,12m,Parietal,27.3030798786244,30.8790697830205,18.761037695516,15.0977233814196,40.0020975734698,16.4250462270232,19.0654161585607,8.6137280045346,21.1015420743254,18.023284555809,14.6383483696261,23.2097636001822,18.8747738090052,28.0342912108442,26.7539036661734,24.0046163873565,20.2233282965144,16.964887724233,13.8520773804084
-1294,Grasp,12m,Parietal,27.3466966339108,30.9515103328419,18.7147758295404,15.0410298238072,39.9234357298211,16.3490764948481,19.0859033664696,8.60734879306617,21.1046165291632,17.9934808991339,14.5754801301601,23.2092956252899,18.9403262741201,27.9957580975437,26.7972358468359,24.020252616253,20.1147870932635,16.9971748350207,13.8826883522968
-1292,Grasp,12m,Parietal,27.3962764139975,31.0275257049177,18.6713900420933,14.9849404672295,39.8419524283883,16.2708831803471,19.1066616230896,8.60000641084269,21.1054115737115,17.9656879927023,14.5111297243972,23.2060668092795,19.0039822922033,27.9575727087671,26.836491228749,24.0373459873736,20.0086472443185,17.0304715874304,13.9114012729732
-1290,Grasp,12m,Parietal,27.4523562672075,31.1054197221714,18.632080432131,14.9294169943198,39.7576765536724,16.1909268135589,19.1264007932642,8.59171575921158,21.1040576604513,17.9387905924381,14.4453573533252,23.200333485627,19.065578564973,27.9201683847202,26.8717009977741,24.0570031939001,19.9054232594443,17.0642142226225,13.9383631375845
-1288,Grasp,12m,Parietal,27.5153472088494,31.1845382643811,18.5983282101198,14.8747507888786,39.6707320389372,16.1098488580578,19.1447153244071,8.5825709585333,21.1008180290464,17.9123349220151,14.3782673029154,23.1916073579524,19.1250299567068,27.8842863025882,26.902886283596,24.0784459855419,19.8060080606101,17.0984204347631,13.9637629024828
-1286,Grasp,12m,Parietal,27.5847441223781,31.2644088245628,18.5699409028614,14.8210928734918,39.5814102904865,16.0277000148147,19.1613366195106,8.57268342365164,21.0971772521356,17.8870638592632,14.3100397758917,23.1797905171972,19.1822466851802,27.849731871975,26.9301081226107,24.1023498726904,19.7114538203343,17.1331464878558,13.9878930817732
-1284,Grasp,12m,Parietal,27.6598724459035,31.344615659325,18.5459384684299,14.7690458590802,39.490660816646,15.9450769377112,19.1760906617083,8.56213660390257,21.0923945660608,17.8620366173858,14.2409785082098,23.1649213800842,19.2370672764915,27.8168357779902,26.9534994837015,24.1283048645335,19.6216856572396,17.1683375272902,14.0112428896401
-1282,Grasp,12m,Parietal,27.7396131762201,31.4247953119658,18.5274103705908,14.7181470520298,39.3985027127242,15.8619185556438,19.1888653053123,8.55099158467349,21.0867230615147,17.8367239871349,14.1715847023042,23.1471911307723,19.2893885462347,27.7859288608217,26.9732499772015,24.155503157679,19.536597960857,17.2039918227316,14.0344346092384
-1280,Grasp,12m,Parietal,27.8231740425943,31.5046646414962,18.5172252921032,14.6684593419642,39.3051198316348,15.7780681205297,19.1996061558373,8.53931924243426,21.0799741266403,17.8110511903386,14.1026002550429,23.1266352337801,19.3397788834227,27.7572730477886,26.9895372823973,24.1837428269323,19.4562596543123,17.2402260667703,14.0573192313979
-1278,Grasp,12m,Parietal,27.9102256110476,31.5840267754899,18.5107612819528,14.6206534828052,39.2106024097442,15.6933693666899,19.2083102979815,8.52733823775426,21.0716992667068,17.7850631722522,14.0350345141625,23.103659175397,19.3881535289053,27.7311083759366,27.0024695824132,24.2132004720763,19.3800358049131,17.2775127650316,14.0796411617797
-1276,Grasp,12m,Parietal,28.0008954510263,31.6627848495623,18.5077647123956,14.5744757772555,39.1150951984773,15.6078408303587,19.2150442952126,8.51513061102684,21.0615631054914,17.7589047570612,13.9685489079149,23.0785459584864,19.4339392978086,27.7075726226761,27.012204948245,24.2443655321234,19.3076562704063,17.3159755539726,14.1012136431365
-1274,Grasp,12m,Parietal,28.0952253424789,31.7409196558853,18.5082295887744,14.5294640971665,39.0194963057647,15.5217068449887,19.2199756618944,8.50262368257698,21.0494158499382,17.7327705534014,13.903102090953,23.0512892126683,19.47688759774,27.6869381470573,27.0190574574821,24.2779464528947,19.2389090662885,17.3553288896903,14.1216296904174
-1272,Grasp,12m,Parietal,28.1927870769442,31.8184277077019,18.5126153161274,14.4854988744482,38.9241692605706,15.4353439201271,19.2234081567769,8.48996074676036,21.0355224430952,17.7066930408298,13.8371131150291,23.0216400397104,19.517789934559,27.6692819845847,27.023505845203,24.3144168420641,19.1736127234235,17.3951431682385,14.1407949488992
-1270,Grasp,12m,Parietal,28.2927768064828,31.8952761526963,18.5209424817985,14.4429434577081,38.8286552175954,15.3492575545685,19.2258063933593,8.47725941240897,21.0208049107508,17.6805401348162,13.7700334947703,22.9895399679593,19.5565341910904,27.6541842686351,27.0262444938725,24.3537490780889,19.1116538350088,17.4352923692149,14.158715994478
-1268,Grasp,12m,Parietal,28.3949158710954,31.9713147336141,18.5331047511959,14.4015836165852,38.7331039136398,15.263989330996,19.2276295855043,8.46512389774478,21.0043638137296,17.6543299910455,13.7016891641281,22.9555453762472,19.5923332718257,27.6412611743943,27.0272050971707,24.395895995983,19.0529814378237,17.4753513786784,14.1755168127441
-1266,Grasp,12m,Parietal,28.4994090147088,32.0462851488664,18.5490680144164,14.3607736788674,38.6377519780471,15.1801075935038,19.2289311155088,8.45281817201079,20.9862199935034,17.6280612261084,13.632095387511,22.9200489480362,19.6252790847829,27.6303099782244,27.0261948967773,24.4411778984053,18.9976064933536,17.5147978845781,14.191527491843
-1264,Grasp,12m,Parietal,28.6069495684448,32.1199436305237,18.5682946017184,14.3210649372466,38.5428383812852,15.0984956267475,19.2292638758446,8.44044795601092,20.9668379295494,17.6015392878355,13.5616766753676,22.8828104193883,19.655071300603,27.6213066158325,27.0231964661593,24.4900185321161,18.9456072276824,17.5535139027771,14.2068794903801
-1262,Grasp,12m,Parietal,28.7160716381471,32.1921428238379,18.5902681441457,14.2842498942227,38.4485569314236,15.019910472556,19.2280817418951,8.42835103617074,20.9464279362986,17.5747991221975,13.4908579499306,22.8437821543336,19.68122524028,27.6144231506284,27.0183354645732,24.542281533485,18.8971205388801,17.5915130131162,14.2212870264059
-1260,Grasp,12m,Parietal,28.8269680040444,32.2628776601792,18.6148161690741,14.2485626849228,38.3550106172763,14.9438192719697,19.2250141299373,8.4162996438134,20.9245074886175,17.5481696309422,13.4189932879482,22.8031081236984,19.7034006889254,27.6110878589237,27.0119699866542,24.5973143630114,18.8523515420259,17.6282834658724,14.2346702374228
-1258,Grasp,12m,Parietal,28.9396109701544,32.3321813500406,18.6420410446025,14.2139296762004,38.2621905763668,14.8699258602348,19.2198602600509,8.4044724088791,20.9007822809354,17.5221862053616,13.3456038149231,22.7610866202306,19.7215784801178,27.6110027463579,27.0049833234517,24.6543446334777,18.8115672349966,17.6639497346546,14.2469627970101
-1256,Grasp,12m,Parietal,29.0525529569697,32.4000866440422,18.6720359286598,14.1805576840334,38.1700994003232,14.7988041658642,19.2125433368456,8.39312075528225,20.8750430180284,17.4969840746443,13.2706275886085,22.7181850433237,19.7360664827151,27.6136162863797,26.9977502889067,24.7125544306115,18.7751070389241,17.6979899009077,14.2581808293266
-1254,Grasp,12m,Parietal,29.1648017988992,32.4666695568412,18.7048328646472,14.1486708754777,38.0789107337682,14.7302240507953,19.2030555175033,8.38275237621218,20.8471834369565,17.4724358928844,13.1942254721438,22.6746083113863,19.746331235824,27.6190773144901,26.9893656572747,24.7711044996189,18.743393658723,17.7301594586156,14.2683240019128
-1252,Grasp,12m,Parietal,29.2756439844093,32.5313628644995,18.741018074742,14.1185845202108,37.9887226432897,14.6633057654429,19.1914668126935,8.37371689145181,20.817549585838,17.4488246454049,13.1165434055313,22.6303802287563,19.752217810498,27.6281892034123,26.9794743541762,24.82926602031,18.7168239193163,17.7604899391916,14.2774096453246
-1250,Grasp,12m,Parietal,29.3845525781236,32.5941125541831,18.7812866288149,14.0909192540295,37.8993158527739,14.5979361244969,19.177906788252,8.36628866192352,20.785793873273,17.426188326454,13.0375260135523,22.5856307088247,19.7538132197291,27.6404255142492,26.9682717810099,24.886445306113,18.6954078653923,17.7893208277424,14.2854311905166
-1248,Grasp,12m,Parietal,29.4910699875579,32.6549866538399,18.8269519429987,14.0668712984052,37.8107286568145,14.5348620528459,19.162575027401,8.3600786552815,20.7514444116873,17.4043504163102,12.9571120930717,22.5405910128224,19.7513587858804,27.6551504581391,26.9560252555834,24.9421734898158,18.6790462835068,17.8167227753133,14.2923493609244
-1246,Grasp,12m,Parietal,29.5948319992072,32.7145299948204,18.8755307209825,14.0466963782863,37.7231566401567,14.4739840441275,19.1457626003556,8.35504131519717,20.7143707052028,17.382602781947,12.8753081376988,22.4960653730093,19.7451911903734,27.6723663883723,26.9432370448921,24.9960750473014,18.667735291503,17.8423591488681,14.2981162397637
-1244,Grasp,12m,Parietal,29.6955366232997,32.7723850076771,18.9256149607922,14.0296631940485,37.6367677029288,14.4146850953316,19.1278499286376,8.35135319860039,20.6744044353142,17.3608220468959,12.7922267438051,22.4520226941752,19.7355354485051,27.6919560038553,26.9296097161081,25.0478397024395,18.6615213791462,17.8662979379587,14.3026734787099
-1242,Grasp,12m,Parietal,29.7928534475581,32.8279426176835,18.9773725351917,14.0154383015423,37.5518463423768,14.3571678152614,19.1092527561957,8.34908741146052,20.6313578527539,17.3390378445662,12.7080258830205,22.4090645920342,19.7227044043277,27.7137493670436,26.9147858885346,25.0972050481341,18.6604803083754,17.8883258446249,14.3060245533493
-1240,Grasp,12m,Parietal,29.8864992501558,32.8811012740374,19.0302828837432,14.0039263775987,37.4695256564843,14.3016902871498,19.0903245132338,8.34820357998895,20.5850854122915,17.3174880202461,12.6227720038408,22.3680670030704,19.7063997739053,27.7376662760434,26.8988567891779,25.1439511526619,18.6647489161499,17.9088829564932,14.3082869568389
-1238,Grasp,12m,Parietal,29.9762198979232,32.9319985383177,19.0838100136324,13.9951143038186,37.3893918636798,14.248569112197,19.0713114578836,8.34856347583686,20.5355054298653,17.2965349262616,12.536406440188,22.3288512682417,19.6865049324664,27.763494542138,26.8822605977718,25.1878947973296,18.6751061950481,17.9287078342784,14.3097240008027
-1236,Grasp,12m,Parietal,30.0617983468535,32.9811944808908,19.1381781064512,13.9890671351773,37.3116374287877,14.1982489469866,19.0524831567114,8.35013187734726,20.4826173370955,17.2762038004718,12.4488470537331,22.291469257755,19.6630647430122,27.791165274938,26.8645724751805,25.2289028533155,18.692546150316,17.947171795494,14.3106593201821
-1234,Grasp,12m,Parietal,30.1431327350844,33.0280441860029,19.1934160883072,13.986016249956,37.2361431670693,14.1512982665574,19.034296998301,8.35293467879002,20.4265026590331,17.2564444809721,12.3600407612088,22.2556025480002,19.6361463212069,27.8209797356424,26.8456251768088,25.2668910100173,18.716166604974,17.9638377913814,14.3111191006634
-1232,Grasp,12m,Parietal,30.2204209598614,33.072326313521,19.2500889318693,13.9864575056982,37.1627318529925,14.10811691654,19.0174318791512,8.35706721262172,20.3673677252804,17.2374805568173,12.2699843861802,22.2212403604981,19.6059603595237,27.8528624207871,26.8254775346775,25.3018449221318,18.7458077068643,17.9785964551631,14.3109442732659
-1230,Grasp,12m,Parietal,30.2938948954497,33.1140663164097,19.306892371211,13.9911546822886,37.0912456871294,14.0688914801246,19.0023470116793,8.36278952058602,20.3056045222017,17.2195269474935,12.1787142248152,22.1885935401794,19.5730891929214,27.8864738278745,26.8041440891726,25.333824001313,18.7823329239379,17.9914258480007,14.309946064615
-1228,Grasp,12m,Parietal,30.3633261995534,33.1533000711223,19.3628407421491,14.0000121980957,37.0216476981107,14.0350991337265,18.9891064473408,8.3701479849426,20.2417563741196,17.2021136779943,12.0863103817242,22.1581613473679,19.5379241639861,27.9219398485686,26.7816522543943,25.3630468980243,18.8251816159611,18.0023684004045,14.3080094967907
-1226,Grasp,12m,Parietal,30.4283476316498,33.190228437247,19.4180632071787,14.0122773384405,36.9539901126749,14.0068675071178,18.9777778634666,8.37887840061032,20.1758779002922,17.1851531296344,11.9928855694754,22.1297094102525,19.4998986416669,27.9601796948954,26.7580539285931,25.3904578211612,18.8742922480575,18.0116003442737,14.3051561261771
-1224,Grasp,12m,Parietal,30.488708772,33.2250708855131,19.4723103173751,14.0275496614834,36.8884048820747,13.9829761446593,18.9682209793833,8.38878414460448,20.1078324435709,17.1692707563727,11.8985896056427,22.1031784647852,19.458372330822,28.0012133257677,26.7333545664565,25.4157579648869,18.9296528084806,18.0191808955604,14.3015571031512
-1222,Grasp,12m,Parietal,30.5441991652028,33.2571751189649,19.5246771811026,14.0456611199494,36.8250624206178,13.963450429708,18.9599856626508,8.39964851366374,20.0379139544967,17.1542586656968,11.8036078180479,22.0786632558072,19.4129975714893,28.0439565504388,26.7076777680631,25.4381958052896,18.990034621392,18.0250867017497,14.2974668412712
-1220,Grasp,12m,Parietal,30.5945598116333,33.2865909492583,19.5748008621021,14.0663807495949,36.7641554094699,13.9481924339945,18.9530119736324,8.41108890725125,19.9662589899515,17.1397602972326,11.7081609620895,22.0559947500675,19.3636427758516,28.0886549097199,26.6814481152664,25.4575190401052,19.0548451924869,18.0294570005777,14.2931384289311
-1218,Grasp,12m,Parietal,30.6395584455934,33.3135793497694,19.6223625398433,14.0894410370795,36.7059154996152,13.9374947990692,18.9490370477948,8.42290843627127,19.8927571093662,17.1258134204668,11.6125052782789,22.0355794406118,19.3102905573684,28.1353402066698,26.6550374459812,25.4735608625064,19.1236542063621,18.0330595731131,14.2888678061902
-1216,Grasp,12m,Parietal,30.6790637658955,33.3395241956391,19.6670834980323,14.1146914637551,36.6507220488157,13.9320172411723,18.9462912387727,8.43510064276253,19.817285433554,17.1124674323263,11.5169421310398,22.0179335791453,19.2530026002677,28.1841101494025,26.6281961904583,25.4862616841248,19.1968940079512,18.0361154472535,14.2847963495213
-1214,Grasp,12m,Parietal,30.7130304726303,33.3639803754718,19.7087651936546,14.1419978982919,36.5991867227247,13.9322525586885,18.9446196290844,8.44711096912385,19.7396962895952,17.0997688727307,11.4218179467973,22.0025197770889,19.1918947732062,28.2356206920693,26.6005504862575,25.495887014495,19.2735376725343,18.0381891906487,14.2809961433301
-1212,Grasp,12m,Parietal,30.7415232608056,33.3861906964983,19.7473837904645,14.1712765469224,36.5518689433281,13.9371214506037,18.9444305778087,8.45876805395644,19.659923356475,17.0877913251902,11.3275367279941,21.9896498640184,19.127142766858,28.2896923522246,26.571768739373,25.505697125091,19.3529723255202,18.0392528106791,14.2786378202431
-1210,Grasp,12m,Parietal,30.7649103771091,33.405884979907,19.7829907264492,14.202607593939,36.5090459649523,13.9454197078915,18.9462850740641,8.46994989677007,19.5779867960839,17.0766151116437,11.2345738750183,21.9799282118726,19.0589900371712,28.345767908998,26.541546653833,25.5153770781439,19.4337589998987,18.0395179899146,14.2778032209043
-1208,Grasp,12m,Parietal,30.7834590065351,33.4225253931953,19.8152694355282,14.2364409768571,36.4710163949579,13.9564352136252,18.9506046586255,8.48057606328427,19.494009485009,17.0662984385232,11.1434939777854,21.9748038515486,18.9877585650061,28.4039134449032,26.5102405370022,25.5225429038814,19.5147715584335,18.0396491366789,14.27708264513
-1206,Grasp,12m,Parietal,30.7975278608071,33.4356731097486,19.8438371669542,14.2744164756381,36.4382729077701,13.9698661236466,18.9573696959876,8.49062605464615,19.4082439791511,17.0568850784033,11.0550456223378,21.9747532317974,18.9138888937248,28.4644040942231,26.4767742376713,25.5273569660328,19.5952953886426,18.0396134264755,14.2765542105284
-1204,Grasp,12m,Parietal,30.8074037747205,33.4450945385446,19.868516660677,14.3153935550325,36.4116087223846,13.986094402918,18.9662181507202,8.50014800899628,19.3209720369084,17.0484053386139,10.9702054460445,21.9801428042938,18.8383400726259,28.5275130088615,26.4411064173833,25.5298614736548,19.6748054938646,18.0391250255534,14.2763005101041
-1202,Grasp,12m,Parietal,30.8126913364694,33.4510314756468,19.8892640421607,14.3589455162302,36.3899955289852,14.0049146584083,18.9768165038521,8.50917482794285,19.2322444096089,17.0408686196584,10.889580418816,21.9908733278887,18.7612724953747,28.5931919955097,26.4047989503809,25.5297327723609,19.7528768314187,18.0381093560345,14.2767541593271
-1200,Grasp,12m,Parietal,30.8140137316754,33.4535179229447,19.9061355536298,14.4049385650126,36.3730600791842,14.026300092371,18.9892239882818,8.51773861361255,19.1419703689105,17.0342863183497,10.8135973160388,22.0066027481892,18.6826147771144,28.6614145665369,26.3670567395752,25.5284176163571,19.8291565946443,18.0363360455978,14.2778551660614
-1198,Grasp,12m,Parietal,30.812046906472,33.4518366180506,19.9192782234959,14.4528437476064,36.3607351393865,14.0498256346862,19.0036790818367,8.52567887000764,19.0502743564811,17.0286944997594,10.7431245717648,22.0270747170698,18.6027397882402,28.7316377203167,26.3267757007857,25.5252384512906,19.9033468970454,18.0337654818736,14.2793398059097
-1196,Grasp,12m,Parietal,30.8068440298881,33.4457909487371,19.9288852682278,14.5019044445413,36.3530387595885,14.0753523514755,19.0197769448679,8.53265235488237,18.9574718387378,17.024161544229,10.6789579940965,22.0521230600873,18.5229853872417,28.8032679366042,26.2833922295892,25.5182997015247,19.9751960582385,18.0303967369212,14.2808845314206
-1194,Grasp,12m,Parietal,30.7986529108964,33.4353474086002,19.9350979803639,14.551878245639,36.3500459387036,14.1027379925015,19.0372194962096,8.53851241700846,18.8639558405168,17.020804218173,10.6211663795799,22.0819048517725,18.4429491899354,28.8761448023306,26.236312844806,25.5072615507403,20.0444862010008,18.0262610771535,14.2821967417756
-1192,Grasp,12m,Parietal,30.7876970186131,33.4209006083254,19.9379746978362,14.6034866857327,36.3519342370319,14.1318894886143,19.0562587703694,8.54318400599735,18.7699857901817,17.0188850430543,10.569141884693,22.1167648275349,18.362282041372,28.9501691806441,26.1850942403675,25.4919409766263,20.1110328215014,18.0214751335999,14.2830688417215
-1190,Grasp,12m,Parietal,30.7747117290123,33.4028190302699,19.9374982694181,14.6581396725739,36.3594870588458,14.1630273153721,19.0777226822742,8.54662210258071,18.6757443669603,17.0186766318368,10.5221623676361,22.1563771991173,18.2819670670275,29.025164708422,26.1294537740468,25.4722000931089,20.1746827271752,18.0162600999079,14.2833711452505
-1188,Grasp,12m,Parietal,30.760344514401,33.3810501237507,19.9334293995521,14.7137405583027,36.3741475858252,14.1965936329655,19.1019687785459,8.5488533208867,18.5815157118762,17.0200629791928,10.4797710064587,22.200350083816,18.2022099924947,29.1010024300282,26.0692367143637,25.4479476752937,20.2353232251534,18.0109322620047,14.283071322563
-1186,Grasp,12m,Parietal,30.7444219758058,33.35492345859,19.9254856656166,14.7697453722864,36.395374011329,14.2323057921353,19.128280536555,8.55004790060059,18.4876637480829,17.0229969849546,10.4417906106587,22.2481841853897,18.1233179035495,29.1777967218334,26.0043909516827,25.4191324871946,20.2928912357879,18.0060097577564,14.2821390589737
-1184,Grasp,12m,Parietal,30.7267945582807,33.3242939983692,19.9135284541156,14.8261697225813,36.4220928441601,14.2689862100733,19.1560728928228,8.55013903366852,18.3946074695544,17.0274737279097,10.4082511584425,22.2995342556,18.0456345354272,29.2555257000903,25.9349790625039,25.3857464112223,20.3473881439603,18.0023762791259,14.2803838645237
-1182,Grasp,12m,Parietal,30.7083136974476,33.2891073236257,19.8975341269523,14.8826677221505,36.4532423354785,14.3057824091114,19.1848631486418,8.54957836317268,18.3028564349824,17.0334492113469,10.3802759482953,22.3541013549438,17.9692895275443,29.3338941852661,25.861436899408,25.3478210034771,20.3988962065415,18.0000493042796,14.2781070970043
-1180,Grasp,12m,Parietal,30.6890996792095,33.2494140046341,19.8775532311097,14.9402167902908,36.4880776423457,14.3421878833541,19.2142208010577,8.54806576496003,18.2130856303047,17.0409258672717,10.3580079798509,22.4113436799132,17.8946270653159,29.4133743432333,25.7847690845391,25.305432275549,20.447525290167,17.9993066213687,14.2751322439155
-1178,Grasp,12m,Parietal,30.668895651733,33.2054099044623,19.8536883304433,14.9990915642532,36.5259321313305,14.3778292816451,19.2438166949434,8.54577779281105,18.126450554161,17.0502019354928,10.3406091658948,22.4709249873406,17.8220946853782,29.4939262961038,25.7044100688221,25.2587042888378,20.4932962418114,18.0005204854534,14.2711408588464
-1176,Grasp,12m,Parietal,30.648044574798,33.1572566866661,19.8260790480339,15.0574790226801,36.5663974073763,14.4124053097768,19.2734493368741,8.54251806077117,18.0442915725277,17.0618197862791,10.3284850799188,22.532618833342,17.7523594216151,29.5747778140544,25.6199746644742,25.2078100420823,20.5361522590164,18.0041332678514,14.2658541655587
-1174,Grasp,12m,Parietal,30.6262182047561,33.1049239266948,19.7949134217224,15.1151732271622,36.6095847746309,14.4456711537858,19.3031792711545,8.53810084092399,17.9652484616206,17.0758458683894,10.3219405365904,22.5972511481557,17.6855730123974,29.6562648550699,25.5311841225812,25.1529739877066,20.5760364020686,18.0101794151237,14.2591844946114
-1172,Grasp,12m,Parietal,30.6035623245988,33.0484717890476,19.7604555567306,15.171924960353,36.6563108909769,14.4774459305552,19.3338135833301,8.53250377892542,17.8891090337943,17.0921246010319,10.3204011516468,22.6637006289512,17.6217238360182,29.7383726800073,25.4381567901096,25.0944791505207,20.6128663561274,18.0178417575741,14.2510928600087
-1170,Grasp,12m,Parietal,30.5807271613915,32.9880281198514,19.7230505883433,15.2275149117456,36.7066320807674,14.5076036681835,19.364900370158,8.52579222922068,17.8162139133011,17.1105312923461,10.3233355344458,22.7315286494237,17.5620975127003,29.8205367218726,25.3410023379685,25.0325957309681,20.6465134986507,18.0274489314011,14.2415419020969
-1168,Grasp,12m,Parietal,30.55765391481,32.9237519151652,19.6831752479074,15.2817967365618,36.7596828713075,14.5360876123268,19.3963491574421,8.51819071616145,17.7466469966915,17.1313658764517,10.3305431746333,22.8001577715694,17.5059710632282,29.9028882928443,25.2394718817664,24.9674777854384,20.6768928502778,18.0384000402629,14.2304940150316
-1166,Grasp,12m,Parietal,30.5346382357144,32.855811875804,19.6415207432274,15.3345824925274,36.8151659303687,14.5629245529006,19.428331347876,8.51036135121023,17.6803892268389,17.1543323210247,10.3419622672027,22.8694329386881,17.4533185166059,29.9850386396145,25.1335766368696,24.8990675602974,20.7039874428219,18.0506228631123,14.2178977950093
-1164,Grasp,12m,Parietal,30.5110013944766,32.7844467124731,19.5990278489953,15.3856070970686,36.873616918811,14.5883769285606,19.4607729146716,8.50192938932693,17.6177620562268,17.1792706785712,10.3576115583121,22.9391890052574,17.4042456283777,30.0663954152052,25.0234105641939,24.8271811734667,20.7278772087127,18.0650074173359,14.2037068626804
-1162,Grasp,12m,Parietal,30.4863959163972,32.7099951419605,19.5562115136182,15.4346246519175,36.9362541847284,14.6130570501774,19.4934967300588,8.49269429300207,17.5593722558317,17.2063674152311,10.3775383768168,23.0091887176796,17.3591405388272,30.1464863599879,24.9091326781849,24.7516205384232,20.7488531644796,18.083401176864,14.1878874993421
-1160,Grasp,12m,Parietal,30.4609291505966,32.6327937871857,19.5131654842776,15.4814263329526,37.0014405413485,14.6367012732851,19.5264673482753,8.48265906023378,17.505640117639,17.2370851913043,10.4017015757307,23.0799156573171,17.3193643169805,30.2249815356514,24.7909962172244,24.672246962279,20.7674308803977,18.103283662544,14.1704294501021
-1158,Grasp,12m,Parietal,30.4349096928424,32.5529988142756,19.4701863257249,15.5258172998518,37.0689837469714,14.6590134756484,19.5598067232785,8.4718306196264,17.4557236376109,17.2708605364387,10.4299409956223,23.1514185239576,17.2854093972635,30.3016104478512,24.6693267168132,24.5889692041268,20.7834725663014,18.1242799263402,14.1513396758161
-1156,Grasp,12m,Parietal,30.4084834659957,32.4707395384436,19.4278185056376,15.5676317870468,37.1386399260978,14.6799495650849,19.5942606925252,8.4602205679246,17.4097884056508,17.3069915854403,10.4621443706713,23.2230959046579,17.2561585556893,30.3761224248765,24.5446055236147,24.5017588087574,20.7967416811091,18.1469597905612,14.1306514970926
-1154,Grasp,12m,Parietal,30.3812885929585,32.3861743768123,19.3874520434256,15.6067331266752,37.2104930245522,14.6995119546257,19.6307570632831,8.447862138631,17.3683397262706,17.3453022489269,10.4984405859523,23.2950324091637,17.2341522134828,30.4482826569646,24.4182099237471,24.4106245267942,20.8072975403613,18.1715130878811,14.1084183811541
-1152,Grasp,12m,Parietal,30.3535810737717,32.299477006722,19.3516737388813,15.6430211341953,37.2843226148179,14.7177742239687,19.6671257933377,8.43481923655052,17.3323396134084,17.3855654605662,10.5393787554593,23.367443320447,17.2169189161567,30.5179441027827,24.2894602522075,24.3156107163148,20.8153119093207,18.1973046288868,14.0847128647346
-1150,Grasp,12m,Parietal,30.3255063034435,32.2116842442869,19.3193184378922,15.6764374659933,37.3595197670109,14.7348053381662,19.702592483955,8.42114070346827,17.30207131332,17.4274489718449,10.5851415764356,23.4409558752639,17.2017814003829,30.5850661116469,24.1586599123777,24.2168011867826,20.8209537799919,18.2247525266432,14.0596339123885
-1148,Grasp,12m,Parietal,30.2965925904702,32.1227099343782,19.2912139357599,15.7069599146847,37.4361552059762,14.7506332677323,19.7367358838369,8.40687884494005,17.2760426141846,17.4706290183852,10.6351896734034,23.5148607934512,17.1879043499506,30.6496914011373,24.0260537797476,24.1143144088496,20.8243472144037,18.2541820919593,14.0333187254924
-1146,Grasp,12m,Parietal,30.2672503932316,32.0319077877652,19.2678552641799,15.7348320859164,37.5143946296503,14.7653308261226,19.7692745123192,8.39231215504983,17.254388245869,17.514842473241,10.6895742056743,23.5890530115419,17.175349117138,30.7118670475014,23.8917736459161,24.008300940222,20.8256067610128,18.2848565019385,14.0060417534302
-1144,Grasp,12m,Parietal,30.2381415633227,31.9392961128101,19.2496376007659,15.7599653807688,37.5932665884332,14.7790165632643,19.8000497100065,8.37742668252303,17.237371527932,17.559855297687,10.7487228898901,23.6635748342336,17.1637470568012,30.7715654046834,23.7558816327599,23.898960192302,20.8248622755056,18.31626537576,13.9782474497181
-1142,Grasp,12m,Parietal,30.2100527593293,31.8448703766429,19.2364824567406,15.7820794993673,37.6726428884842,14.7921429241059,19.8289947925653,8.36229657979748,17.225145291166,17.6054359381901,10.8126742940284,23.7383504214845,17.1522625401718,30.8286616503497,23.6184562664407,23.7865373215847,20.8222385989604,18.3482446825155,13.9497832237338
-1140,Grasp,12m,Parietal,30.1821377072796,31.7486364969203,19.2289285988827,15.8011950640623,37.7522148983172,14.8062047573649,19.8561388541805,8.34711324332438,17.217759375912,17.6513811788425,10.8807630171135,23.8132250401306,17.1413064646327,30.8830296396618,23.479654864253,23.6713382960999,20.818024678969,18.3808096208096,13.9206202024207
-1138,Grasp,12m,Parietal,30.1541286662516,31.650614182932,19.2247027273757,15.8172973644453,37.8316112807545,14.8196218734333,19.8816036329974,8.33212709747034,17.2157234426492,17.6975231633598,10.9522690843325,23.8876802685481,17.130810885196,30.9345727600332,23.3396603643793,23.5537229727657,20.8129076984544,18.4140446569649,13.890975821722
-1136,Grasp,12m,Parietal,30.1264326331607,31.5508763441066,19.2236014747716,15.830188233895,37.9107706164295,14.8323970142327,19.905648552409,8.31764946135231,17.2204542424071,17.7437509921381,11.0266890113982,23.9610835415066,17.1198260479278,30.983241942975,23.1987380039935,23.4340923006669,20.8067685695329,18.4478510454392,13.8614582113351
-1134,Grasp,12m,Parietal,30.0996628208929,31.4495194163405,19.2254548413115,15.8396992525026,37.989955891439,14.8444906874194,19.9286705046935,8.303958218566,17.2304711593989,17.7900138855287,11.1038067629777,24.0331933354612,17.1087150729865,31.0289706993048,23.057264580255,23.3128133246033,20.7996392816144,18.4821083049269,13.8322588943575
-1132,Grasp,12m,Parietal,30.0745828898925,31.3466998446405,19.2300714969424,15.8457744778433,38.0689641411903,14.8558084022862,19.9511075280726,8.29201157690922,17.2449824510147,17.8364198718247,11.1848149656694,24.1039620266877,17.0972777613475,31.0717385132166,22.9158981386791,23.1931919900597,20.7920317914059,18.5167670292276,13.8030858367357
-1130,Grasp,12m,Parietal,30.0519268683073,31.242602315059,19.2372751802171,15.8484172718163,38.1479103091225,14.8661956596411,19.973164694284,8.28149598781136,17.2632215814182,17.8829757392429,11.2678401900535,24.1732749627427,17.0844534497004,31.1115849150462,22.7757339161109,23.0745239130681,20.7836465230115,18.5517309346169,13.7738906254888
-1128,Grasp,12m,Parietal,30.0322221349577,31.1374213646115,19.2469808480269,15.8476724747058,38.2266427983627,14.875508569175,19.9947211475177,8.27240632883566,17.2852882873936,17.9294196168608,11.3521948095524,24.2409156895434,17.0699296075066,31.1485122161913,22.6377745192244,22.9548292229736,20.7740183220473,18.5869216917148,13.7446522376806
-1126,Grasp,12m,Parietal,30.0159940884325,31.0313693676081,19.2594613630356,15.8436266026464,38.304143499771,14.8844465812399,20.0154083593469,8.26496117847973,17.3116388715233,17.9756364428128,11.4375196416416,24.3067658178689,17.0535311115236,31.1825016074901,22.5035965641713,22.8344246493733,20.7631857212087,18.6223133954517,13.7154082010439
-1124,Grasp,12m,Parietal,30.0033359397055,30.9247120182007,19.278619289927,15.8364182472075,38.3800241714064,14.8933291960693,20.0349429451469,8.25994134684951,17.3413405624523,18.021616080654,11.5235232355173,24.3708173017499,17.0352077189736,31.2136696798143,22.372818163491,22.714307001957,20.7513353406394,18.6579179926301,13.6862584848211
-1122,Grasp,12m,Parietal,29.9946174929067,30.8178334331802,19.301852449494,15.8262789659133,38.4540183338626,14.9010655913826,20.0536270009862,8.25722357687268,17.3742968052129,18.0673691712152,11.6099635433047,24.4331719831697,17.0150719109316,31.2432107453709,22.2450782683156,22.5954920101132,20.7388435972587,18.6938051781344,13.6573314096312
-1120,Grasp,12m,Parietal,29.9900588159984,30.7116374355346,19.3279544644126,15.8135394201292,38.5259846404977,14.907514485913,20.0723230866799,8.25630235310204,17.4104479434245,18.1129312670275,11.6966448141623,24.4940033182529,16.9931302420321,31.2721993452043,22.1201250959936,22.4770228928122,20.7264528414622,18.7302038980592,13.6287915212895
-1118,Grasp,12m,Parietal,29.9893777924702,30.6072000387122,19.3566628844524,15.7984171603889,38.5958545956905,14.9125531763895,20.0905401206527,8.25716844210996,17.4505128221082,18.1584247732807,11.7834049670512,24.5535280180744,16.9694799382104,31.2988922086814,21.9978756413276,22.3584666088745,20.7139699274399,18.7670756540418,13.6008216777264
-1116,Grasp,12m,Parietal,29.9919875358729,30.5054281596015,19.387774231352,15.7811776187851,38.6642923471487,14.9161737363021,20.1075592867329,8.25981574448817,17.4958153773652,18.2041838490283,11.8701261104342,24.6118143272127,16.9442491316033,31.3232940494721,21.8785682498074,22.2400573671813,20.7021619335549,18.8042407926524,13.5735296774821
-1114,Grasp,12m,Parietal,29.9974867741169,30.4054022239481,19.4210735170296,15.7620408524771,38.7313636250314,14.9185517143507,20.1226187268977,8.2643226222891,17.5444914658084,18.2506317596452,11.9567318156321,24.6687176045157,16.9172374828578,31.3451789020175,21.763067874797,22.1222757349197,20.6915994069104,18.8417373971563,13.5469783161296
-1112,Grasp,12m,Parietal,30.0056461122791,30.3064927781187,19.4561791331428,15.7409385752362,38.7962183262059,14.9205196046479,20.1353088334819,8.27104443646703,17.5961617938208,18.2981372281343,12.0432121761922,24.7244117839834,16.8885576909351,31.3653777470522,21.6512562615227,22.0057204593867,20.6809939421641,18.8798014371948,13.5208823376262
-1110,Grasp,12m,Parietal,30.0158076294639,30.2086952887284,19.4926439811405,15.7178052334337,38.8588837454515,14.9215009543397,20.1454627364047,8.27999254329701,17.6505715654997,18.3459304980432,12.129650606522,24.7789839909482,16.8585099706999,31.3820670130247,21.5437405767622,21.89120284407,20.6697956282328,18.9187794021367,13.4949865095776
-1108,Grasp,12m,Parietal,30.0281117432876,30.1118684636859,19.5300688483747,15.6924781077533,38.919586979236,14.921307575317,20.1530786449097,8.2910109183614,17.707487060253,18.3938984140919,12.2161471873466,24.8324234484547,16.8269406890651,31.3947550111095,21.439674545672,21.7803731051867,20.6582727678954,18.9587868538867,13.4693183473206
-1106,Grasp,12m,Parietal,30.0421517626859,30.0158380805973,19.5680866980017,15.6649902611518,38.9787551565734,14.9199101488579,20.1583329623249,8.30386393512953,17.766649061988,18.4422659012738,12.3026113937544,24.8840877601748,16.7933918164096,31.4033662438121,21.3390842291845,21.6748383518006,20.6464135272439,18.9997898042306,13.443754457349
-1104,Grasp,12m,Parietal,30.0572286081249,29.9205549727739,19.606361442907,15.6355581122442,39.0370027366882,14.9172394039265,20.161506691578,8.31823561006081,17.8276341504853,18.4917258020356,12.3888896899541,24.9333521616126,16.7576731291022,31.4078929627375,21.2411110148131,21.5743290594974,20.6337315465755,19.0416491810165,13.4180900127665
-1102,Grasp,12m,Parietal,30.0732694633466,29.8261602665811,19.644698812155,15.6044505471232,39.0930865498646,14.9132379337308,20.162661171971,8.33386440604404,17.8899039978265,18.541429722691,12.4748526009674,24.9799433401338,16.7197603696261,31.408391291145,21.1455480974686,21.4778351789185,20.6199079226439,19.0842847221596,13.3922594205537
-1100,Grasp,12m,Parietal,30.090492211318,29.7329582376153,19.6836605090538,15.5717074262991,39.1465608107707,14.9078823783352,20.1617395034202,8.35051292408739,17.9529601373043,18.5922066830289,12.5603479968485,25.0237297423397,16.6796987505716,31.4049740265805,21.0528592410302,21.3845897182901,20.6047359334537,19.1277747230199,13.3662660036431
-1098,Grasp,12m,Parietal,30.1093251353895,29.6410389181904,19.723653005456,15.5372243834367,39.1972419777755,14.9012045480936,20.1589895397052,8.36797225807256,18.0163911620217,18.6432602717205,12.6452374965679,25.0646236091265,16.6375886698944,31.3978225536061,20.9628637379034,21.2941358384142,20.5880158594331,19.1723283342719,13.3401451796582
-1096,Grasp,12m,Parietal,30.1303266375039,29.55045811605,19.762949968245,15.501013895458,39.2450915771932,14.8933068336837,20.1547945256377,8.38606928353791,18.0798249965218,18.6942191553789,12.7294531251647,25.1026377703867,16.5935751185184,31.3874098493116,20.8750709501174,21.2069308348893,20.5696072989009,19.2183952954378,13.313898657963
-1094,Grasp,12m,Parietal,30.1548816565948,29.4620133532182,19.8006923022381,15.4632212513217,39.2905206339581,14.8843198610124,20.1490892547466,8.40467872996932,18.1429145226829,18.7453310871523,12.8130345859566,25.1380548402863,16.5478598715172,31.3747119413601,20.7893818913161,21.1229376027469,20.5495535078455,19.2656390949355,13.2874833538984
-1092,Grasp,12m,Parietal,30.1815736725392,29.3749565230052,19.8365036950468,15.4240822092979,39.3333130673894,14.8742271258239,20.1416773959806,8.42396134720294,18.2053440720396,18.7974169688834,12.8961379689953,25.1708697715717,16.5007047415901,31.3594081986253,20.7057307680813,21.0401042776004,20.527894730979,19.3141205433378,13.2610529981957
-1090,Grasp,12m,Parietal,30.2092916263487,29.2892694306306,19.8701651558267,15.3839161152587,39.3730584084735,14.8628821733228,20.1331431719082,8.44358532271048,18.2668432070754,18.8499656112317,12.9788871622244,25.2009788159124,16.4524308621891,31.3415601432434,20.6246940191297,20.9579367266801,20.5044362156176,19.3634776922741,13.2348963489732
-1088,Grasp,12m,Parietal,30.2382420848565,29.2050322160731,19.9015193072316,15.3431468215679,39.4097212086043,14.8501319771982,20.1246754830274,8.46344382266226,18.3271985871471,18.9028117228163,13.0610749970823,25.228442703249,16.4033966539564,31.3217539656756,20.5465265093569,20.876316933407,20.4790378325976,19.4130079467283,13.2083189266333
-1086,Grasp,12m,Parietal,30.2676715094961,29.1222889808287,19.930321892309,15.3022710399305,39.4433239533292,14.8358179876635,20.1152573689472,8.48349392851738,18.3862389846784,18.9558884565348,13.14224165252,25.2533174108309,16.3539840478729,31.3004815436198,20.4704087788583,20.7953017200885,20.4517037114148,19.462418929343,13.1811236697646
-1084,Grasp,12m,Parietal,30.2987703503925,29.041115763676,19.956243432384,15.2618904302211,39.4739470161815,14.8198367222974,20.105149985587,8.50362942490948,18.4438645039055,19.0089737903287,13.221929174921,25.2757775732507,16.3049615479516,31.2776639494929,20.3971291714942,20.7151946223782,20.4225829150683,19.5113176120136,13.1532108572081
-1082,Grasp,12m,Parietal,30.3307189575253,28.9612371906379,19.9789994219809,15.2229185497325,39.5017152140852,14.8021800549831,20.0944571098097,8.52377973123629,18.5001177259442,19.0619014175649,13.2997441105169,25.2960936233613,16.2566074199312,31.2531517481622,20.3264009139735,20.6376503631984,20.3920630727761,19.5594250496661,13.1245228728336
-1080,Grasp,12m,Parietal,30.3622586236858,28.8821427739524,19.9984516309271,15.1864218077924,39.5268007031037,14.7829140724707,20.0832349557331,8.5439607752566,18.5556769037255,19.114675137051,13.3753541449147,25.3145357338393,16.2099069088149,31.2269926733522,20.2574210387178,20.5639879033658,20.3604711326808,19.6065065455117,13.0950238684572
-1078,Grasp,12m,Parietal,30.3933542533577,28.8033867909365,20.014670204179,15.1527612840936,39.5494562851625,14.7624276208287,20.0715493661429,8.5642782968182,18.6113213155655,19.1676069449575,13.4484833525085,25.3313694748285,16.1654956667782,31.1995673220025,20.1901321611551,20.4931358141039,20.3275927095652,19.652358372095,13.0647021319254
-1076,Grasp,12m,Parietal,30.4239971428684,28.7245951774997,20.0278450468024,15.1213250266481,39.5699560042399,14.741036800923,20.0593021070197,8.58497572537793,18.6658947145825,19.2213130225106,13.5188929606737,25.3471823116535,16.123646392022,31.1717559559365,20.1246573729763,20.427668003009,20.2933722301972,19.6968115831292,13.0335644374171
-1074,Grasp,12m,Parietal,30.4535345362403,28.6455068898889,20.0378109413689,15.091976562455,39.5885464067803,14.718445393214,20.0462289706578,8.60582654591355,18.7188587198086,19.2756481361154,13.5863791608073,25.3627810557767,16.0850193509927,31.1431702572245,20.0611021240709,20.3685226472887,20.2580024592927,19.7399820787372,13.0016552828441
-1072,Grasp,12m,Parietal,30.481400373095,28.565986302551,20.0441035485876,15.0647552486885,39.6053745307552,14.6949442272376,20.0320741459362,8.62658653936386,18.7700768472528,19.3301619861072,13.650767277956,25.3785144448463,16.0502899753944,31.1140584138411,19.9995312791589,20.3136187598791,20.2217695271309,19.781689957082,12.9690700619627
-1070,Grasp,12m,Parietal,30.5072610630653,28.4860107811767,20.0463045358576,15.0395976844888,39.6206719429679,14.6709441936985,20.016680398225,8.64713475158779,18.8194628416783,19.38465993896,13.7119038045032,25.3936535101358,16.0191409143696,31.0848741122543,19.9400298747015,20.2620459205386,20.1849102420537,19.8214979716766,12.9359740732267
-1068,Grasp,12m,Parietal,30.5309288622694,28.4056689472509,20.0440674500817,15.0167911248036,39.6356801567811,14.6476958577525,19.9999879752763,8.66762990165071,18.8669743479156,19.439076475353,13.76965966344,25.4081410230638,15.9914833589473,31.0561437436307,19.8828735303051,20.213082862961,20.147558963796,19.8592949297766,12.9026000524024
-1066,Grasp,12m,Parietal,30.5526404658547,28.3251442158203,20.0371226367942,14.9990455310042,39.649946836004,14.6249317455381,19.9820085032624,8.68838482006262,18.9126533200794,19.4933311578181,13.8239252251491,25.4222949181381,15.9676910260749,31.0283571489285,19.8292708703166,20.166152899913,20.109846538602,19.8950355497732,12.8691573370916
-1064,Grasp,12m,Parietal,30.5719837967277,28.2446932619475,20.0253855294833,14.9845621351048,39.6627836253248,14.6018672350328,19.9628161392044,8.70894806527702,18.9566724446448,19.5472893927527,13.8746163881314,25.4357240662124,15.9473157012495,31.0020081322616,19.7794161924308,20.1208984758827,20.0719979016441,19.9287045356126,12.8360527559661
-1062,Grasp,12m,Parietal,30.5887302134046,28.1645223610802,20.0090472752317,14.9720107230036,39.6742054778881,14.5781441867033,19.942525071232,8.73026932156888,18.9993391980799,19.6008555890881,13.9216699511391,25.4488426465452,15.9300106200626,30.9776722783231,19.733644492451,20.0771317549936,20.0342515813467,19.9602360390179,12.8038536136924
-1060,Grasp,12m,Parietal,30.6029951208823,28.0846753032966,19.9886880669085,14.9609161948445,39.6844611538558,14.5541378020899,19.9212938936658,8.75163744404112,19.0410175754065,19.6540740876961,13.9650743733371,25.4628078940441,15.9160679344612,30.9558554950118,19.6919657588936,20.0347454483338,19.9967956350437,19.9895288485952,12.7720189678246
-1058,Grasp,12m,Parietal,30.6148453479313,28.0050376617262,19.9647696948474,14.9510231272523,39.6938699198013,14.5297427495534,19.899309699108,8.77248353493854,19.0821727270236,19.707173233335,14.0049535172826,25.4767283084931,15.9058056439558,30.9362591346769,19.6550698576349,19.9936598078488,19.9598297483863,20.0165508412962,12.7404639224753
-1056,Grasp,12m,Parietal,30.6238783079268,27.925507969849,19.9369738959188,14.9422073172793,39.7030252362918,14.5049492448801,19.8767891518275,8.79244042648782,19.1228585048541,19.7607632558721,14.0415826886829,25.4907284646733,15.8991922804852,30.9187484552188,19.6231026312182,19.953894808854,19.9235024349965,20.0414483601603,12.709879401539
-1054,Grasp,12m,Parietal,30.6297166981003,27.8461059410089,19.9049932469724,14.9344801083756,39.7130872338184,14.4801047259367,19.8539921336923,8.81132876107756,19.1624549249343,19.8159985744862,14.0747293220063,25.5049539625506,15.8961561249809,30.9035247510363,19.5962693228246,19.9155171116129,19.8877505461494,20.0644011297796,12.6799426642158
-1052,Grasp,12m,Parietal,30.6329530532967,27.7669692578006,19.8687121345653,14.9280538683887,39.7232497362285,14.4556437758601,19.83193995133,8.82905857615717,19.2004764739948,19.8729405505865,14.1039936396936,25.5193871440841,15.8964565920132,30.8911801516148,19.5752405093949,19.8784426829448,19.8524194435509,20.0851730098569,12.6504392595564
-1050,Grasp,12m,Parietal,30.6330963017245,27.6882576706373,19.8281098592326,14.9234130927826,39.733015457991,14.4319322160371,19.8114787331136,8.84557109847672,19.2365952135469,19.9308300712176,14.1291907356907,25.5339550192887,15.9000404113358,30.882661064723,19.5611518047976,19.8424232004322,19.8174768731172,20.1035340099732,12.6215373993257
-1048,Grasp,12m,Parietal,30.6299309084154,27.6101996079313,19.7832613628533,14.9210849917016,39.7423007977162,14.4092943334982,19.7913155732132,8.86083734441153,19.270476439625,19.9898748017286,14.1502248448973,25.5485927376591,15.9068762770917,30.8764277328082,19.5536025008225,19.807270195112,19.7831043403826,20.119573893465,12.5934890537001
-1046,Grasp,12m,Parietal,30.6233888119789,27.5331370736167,19.7343349030407,14.9211745106059,39.751476828238,14.3881530592341,19.771358875044,8.87483655122911,19.3018117572034,20.0505979465972,14.1670412779947,25.5633387595632,15.9167615877888,30.8720656136608,19.5515286874885,19.7729700245911,19.7493944486402,20.1334072851822,12.5665953932318
-1044,Grasp,12m,Parietal,30.613404644822,27.4574898464103,19.6816025021692,14.9230066548302,39.760493301801,14.3686464541342,19.7516236087052,8.88753243627137,19.3304062296838,20.1129055476003,14.1796151280379,25.5783716143275,15.9294927119101,30.8692526951845,19.5544808246959,19.7396909662523,19.7161385517157,20.1451160397443,12.5408527120547
-1042,Grasp,12m,Parietal,30.6000267551532,27.3837460191708,19.6254492175752,14.925652606368,39.7690035479597,14.350718855954,19.7321213234342,8.89888791873322,19.3561839339895,20.1764406939395,14.1879470806677,25.593811797706,15.9450191923231,30.8679545358812,19.5615914525128,19.7077821070725,19.6832235936058,20.1548268685587,12.5162030593091
-1040,Grasp,12m,Parietal,30.5838406580802,27.3130329670214,19.5663498732566,14.9287018287224,39.7778424939495,14.3347038787197,19.7128707746733,8.90888773545026,19.3794890030879,20.242387134537,14.1920658119164,25.6095297473841,15.963521932733,30.8684171358383,19.572447078285,19.6778185993256,19.6507115227676,20.1626760265586,12.4934536451253
-1038,Grasp,12m,Parietal,30.5645133730363,27.2447901094013,19.5047222992015,14.9319984525821,39.7868553877798,14.3214351321874,19.6938995908302,8.91754065039877,19.4006830189314,20.3098007165556,14.1920255030262,25.6263950453056,15.9858418813033,30.8716408475374,19.5870011922088,19.6507266653686,19.618690879408,20.1684744306497,12.472166835694
-1036,Grasp,12m,Parietal,30.5420592396908,27.178503378809,19.440908707489,14.9354063921323,39.7961322126163,14.3125524512081,19.6752498165129,8.92488469653409,19.4192291994647,20.3779752997038,14.1879039926382,25.6442812037194,16.0147604386901,30.8764063414049,19.6044188299811,19.6283082517046,19.5871345546171,20.1720628506554,12.451782411605
-1034,Grasp,12m,Parietal,30.5170590291078,27.1148011843796,19.3752743298724,14.9387105644398,39.8056007458238,14.3076759062876,19.6569805842272,8.9309846535191,19.4347757708973,20.4482038993229,14.1798009741188,25.6626303904411,16.050014495384,30.882587085519,19.6242714466863,19.6118212054143,19.5559392300582,20.1734260325416,12.4322938196236
-1032,Grasp,12m,Parietal,30.4892501022316,27.0555155303481,19.3082862600685,14.941661267417,39.814854951159,14.3055444594777,19.6391620728203,8.93588610280102,19.4470168740156,20.5190793624966,14.167828977578,25.6815845962141,16.0899265928515,30.8894498465323,19.6460902014425,19.6003981306367,19.5250402145986,20.1726450427196,12.4139602346676
-1030,Grasp,12m,Parietal,30.4584816977466,26.9984344692624,19.2413988001134,14.9454475527889,39.8239027138388,14.30581655149,19.6218955369197,8.9395285191758,19.4557661528356,20.5902423225173,14.1521161559366,25.7013280209946,16.1330694167524,30.8965666751225,19.6695841948788,19.5937652789353,19.4944550745124,20.1699672692955,12.3971859053164
-1028,Grasp,12m,Parietal,30.4252057585204,26.9428840911526,19.1753362644562,14.9496309660411,39.8326455046583,14.3084223860093,19.6053266826276,8.94175690694366,19.4617103964001,20.6616433798806,14.1327964271971,25.7219393915376,16.1788846373125,30.9034632014281,19.6951099352775,19.5909836938658,19.464256401477,20.1656632829207,12.3815425048413
-1026,Grasp,12m,Parietal,30.3906233783261,26.8893774212056,19.1094521112021,14.9539130841734,39.8410830397572,14.3134526112066,19.589911702194,8.94244796787538,19.4641001971309,20.7332354240022,14.1100183022803,25.7440110894608,16.2272091963564,30.9098829967134,19.7224671263538,19.5911735387879,19.4345742573356,20.1598122595668,12.3669005025099
-1024,Grasp,12m,Parietal,30.3541390328562,26.8375446345911,19.0442977546403,14.9572058948135,39.8493913133141,14.3211654546174,19.577441480615,8.94154294344748,19.4626508560839,20.8050265401216,14.0839653141598,25.7679191558689,16.2780599378134,30.9154894114465,19.7512975473203,19.5941470487556,19.4056218098376,20.1526898999637,12.3533188628577
-1022,Grasp,12m,Parietal,30.3159494997609,26.7868706764975,18.9807487280619,14.9594954140854,39.8578243337124,14.3319675779932,19.5674954238318,8.93903917415442,19.4574282080847,20.8771030377468,14.0549830762934,25.7928489271727,16.3313278379757,30.9200368307887,19.7812888460273,19.600345683106,19.3777264645864,20.1449928196621,12.3409248265775
-1020,Grasp,12m,Parietal,30.2757923230401,26.7373593999758,18.9197448474647,14.9608560909094,39.8666961800631,14.3464323531546,19.5587601923736,8.93500482393498,19.4485537235341,20.9495468841717,14.0236796676255,25.8181528463146,16.3865450194603,30.9233073576186,19.8122010631004,19.6099478799055,19.3512332950307,20.1364567413912,12.3298862381003
-1018,Grasp,12m,Parietal,30.2339945182366,26.6890479575114,18.8616227345699,14.9614972859305,39.8762582267547,14.3652475360821,19.5513190729283,8.92949001864513,19.4360741755547,21.0222283223243,13.9896551734471,25.8436241109195,16.443213212261,30.9250898853078,19.8442949644134,19.6224995820431,19.3262113224719,20.1271006801268,12.3203779169234
-1016,Grasp,12m,Parietal,30.1915703834604,26.6419493677577,18.8091788706576,14.9618947872381,39.8863064112221,14.3890354232065,19.5464116023272,8.92244808890366,19.4199739324179,21.0949498343007,13.9528275799596,25.869266396027,16.5010527374484,30.9252706754682,19.8780970382858,19.6379515425724,19.302601299271,20.1171263674139,12.3125906704497
-1014,Grasp,12m,Parietal,30.1480655244484,26.5959062493801,18.7609287403051,14.9626436342827,39.896624077959,14.4184460412535,19.5431768814014,8.91388821349207,19.4002645132262,21.1676385985422,13.9132471285787,25.895246153078,16.5598639943171,30.9238691880526,19.9124486040178,19.656636522497,19.2804474140169,20.1069887766728,12.3069889556467
-1012,Grasp,12m,Parietal,30.1038159024652,26.550937689454,18.7162234029305,14.9635811046656,39.9074907292383,14.4545417456047,19.5403221145125,8.90394636831052,19.3770463739789,21.2400980036468,13.8710318539955,25.9218408890148,16.6197938270662,30.9208610323528,19.9472492105571,19.6790701409555,19.2598685864506,20.0965601643849,12.3048232162609
-1010,Grasp,12m,Parietal,30.0592251128,26.5074456321528,18.6751210811041,14.9643207000828,39.91950404891,14.4963107942281,19.5374227584695,8.89282423711527,19.3504981497385,21.3119477588014,13.8263467659275,25.9490363157551,16.6815412403727,30.91600470457,19.982116958877,19.7058055970947,19.2409399867727,20.0850016057405,12.3055715695364
-1008,Grasp,12m,Parietal,30.0146251257267,26.4657398447119,18.6376227781286,14.9647462133857,39.9320982457714,14.543774680496,19.5342016002644,8.88032879730622,19.3208990718137,21.3829731483194,13.7793848371387,25.9766990151368,16.744012516428,30.9092030201172,20.0164053174785,19.7373579175674,19.223669863535,20.0725551425291,12.3091255826122
-1006,Grasp,12m,Parietal,29.9701047028884,26.4277805627302,18.6042568368381,14.9648626635196,39.9466771405055,14.5965762272786,19.5304233633894,8.86629678123702,19.288669500932,21.453462778376,13.7303543700549,26.004655945407,16.8070677656356,30.9006349346311,20.049622768253,19.7741271599873,19.2080701236513,20.0598307546523,12.3151431572429
-1004,Grasp,12m,Parietal,29.925599893383,26.3922939371858,18.5774301843121,14.9647962983684,39.9626456978189,14.6534698472121,19.5258818358594,8.85067713821777,19.2542963992302,21.5243772629904,13.6794721816463,26.0326217112892,16.8709662802257,30.8905841901937,20.0815228599423,19.8166065208583,19.1942217947444,20.0456743707209,12.3233829629054
-1002,Grasp,12m,Parietal,29.8815396763717,26.3596972480283,18.5560750548308,14.9648144121004,39.9788356277509,14.7138964879614,19.5203970118529,8.83339853602997,19.2181943947318,21.5940650426739,13.6269744993529,26.0603865870136,16.9356503352102,30.8789413829947,20.1120318113068,19.8694168120903,19.1823447661509,20.0301933149493,12.3341043626355
-1000,Grasp,12m,Parietal,29.8381654720149,26.3294913081207,18.5386583619721,14.9650131182552,39.9950824218206,14.7776207005013,19.5138149549216,8.81439330243911,19.1810395844409,21.6624360836219,13.5731397703024,26.0878640083065,17.0008233726631,30.8657603311917,20.1410733953661,19.9288690298883,19.1729206579363,20.013571800659,12.3471849786163
-998,Grasp,12m,Parietal,29.7949473778714,26.3008864297806,18.5247406847421,14.9651526081951,40.0112936509197,14.8442454050414,19.5060058052028,8.79362979135136,19.1443447258759,21.7294255190731,13.5182830288,26.1150802666476,17.0661836989729,30.851302016314,20.1685549428637,19.9936985777944,19.166274227212,19.9960736072009,12.3624512579411
-996,Grasp,12m,Parietal,29.7520143367946,26.2735475330495,18.5143429292202,14.9648076472678,40.0273968125232,14.912360425786,19.4968686267238,8.77107014864652,19.1087184697897,21.7949317459597,13.4626963636116,26.1421939940479,17.1317366268793,30.8360989563303,20.1944778796806,20.0645473284595,19.1622430455282,19.9778266870909,12.3797209913157
-994,Grasp,12m,Parietal,29.7096605479241,26.2472913590663,18.5092398549083,14.9640974319137,40.0433420224816,14.981048326922,19.4863244633971,8.74667332241614,19.0737158984425,21.8588277294055,13.4065925035087,26.1694017684363,17.1980269723632,30.8197207296161,20.2189152130233,20.1456703290216,19.1612453877357,19.9589503804345,12.3997027043135
-992,Grasp,12m,Parietal,29.6683790167136,26.2218767890587,18.5077571357086,14.9635724724556,40.0591488555166,15.0497022200941,19.4743180906705,8.72044708979137,19.0391717104864,21.9210394105757,13.3501752980798,26.1967462109463,17.2653456919056,30.801826531839,20.2420082403555,20.2428158792261,19.1664288507163,19.9401343617117,12.4221798166405
-990,Grasp,12m,Parietal,29.6282219567591,26.1971476885815,18.5091551533083,14.9631166600746,40.0749107999318,15.1178474803631,19.4608044884221,8.69255473591488,19.0050145211049,21.981586105072,13.2937014370229,26.2242141006118,17.3337300913443,30.7822324711288,20.2639648210206,20.3458325782226,19.1752252141443,19.9207894797772,12.4472389732254
-988,Grasp,12m,Parietal,29.5893396497048,26.1731597104862,18.5134865954616,14.9624142044682,40.0907996801552,15.1851144309451,19.4457534328493,8.6633844011184,18.9711428466305,22.0406446229964,13.2375206628414,26.2521008812957,17.4029808828544,30.7609110299325,20.2850749682943,20.452884793789,19.1868817139007,19.9005585553442,12.4753883087319
-986,Grasp,12m,Parietal,29.5519917078966,26.1501164916265,18.5213036416088,14.9618291498996,40.1069329557591,15.2512080595266,19.4291260972133,8.63286448455399,18.9374740458398,22.0985207872945,13.1820776309866,26.2812728401652,17.4723361105034,30.7379556366222,20.3056167321482,20.5631186687317,19.2008005392979,19.8793952535502,12.5058970324425
-984,Grasp,12m,Parietal,29.5161160506556,26.1283268163729,18.5320930646222,14.961154387924,40.1234560831572,15.3159139245678,19.4108783026608,8.60105554030293,18.9041985941063,22.1549364754075,13.1278970919952,26.3109917065943,17.5413041060656,30.713533004015,20.3258829542201,20.6759432070562,19.21858677563,19.8572401600224,12.5390761364334
-982,Grasp,12m,Parietal,29.4816589909457,26.1094212728954,18.545756085602,14.9599684173888,40.1408250198725,15.3790952267615,19.3909588120473,8.56806279223591,18.8711834402256,22.2093913848877,13.0755143469977,26.3406237313217,17.6095190632205,30.6877057181427,20.3466277799144,20.7910457233536,19.2389970401474,19.8341329267191,12.5743710844242
-980,Grasp,12m,Parietal,29.4485935037278,26.0934856399391,18.5623016633068,14.9583084335752,40.1597345151413,15.4406879500067,19.3693120770056,8.53407817657731,18.8386371084977,22.2615911224068,13.0254176327171,26.370033204204,17.6767393590971,30.6604800857212,20.3677136264645,20.9085554137193,19.2602920042563,19.8106182396133,12.6111158335104
-978,Grasp,12m,Parietal,29.4166035708475,26.079000279054,18.58150675163,14.9562839767273,40.1793920805002,15.5006819931698,19.3458855662679,8.49919674055496,18.8066788479867,22.3112381832672,12.9780978269063,26.3993633206296,17.7429461999073,30.6321809425444,20.3891585132178,21.0291692934896,19.2821038518317,19.7862292819411,12.6492143344655
-976,Grasp,12m,Parietal,29.3856052324848,26.0664662715148,18.6031868292783,14.954265606345,40.1998744463723,15.5590805988161,19.3206451922693,8.4635670828349,18.7745929782325,22.358034074854,12.9341731772702,26.4287474684791,17.8083703750155,30.6027622410924,20.4125887262235,21.1533722748618,19.3041190949125,19.7605926770727,12.6886721851863
-974,Grasp,12m,Parietal,29.3560340518948,26.0550772244125,18.6271746837538,14.9530665909746,40.2213501030055,15.6157249567346,19.2935769462895,8.42785673501688,18.7418838642981,22.4017100969022,12.8944831435474,26.4578258950651,17.8730619155842,30.5725191964287,20.4370317809739,21.2806994313143,19.3260673188521,19.733885250312,12.7292979319593
-972,Grasp,12m,Parietal,29.3285136734252,26.0447005280281,18.6532942439491,14.9535609426335,40.2438669234393,15.6702334583706,19.2646976919138,8.39202443202861,18.7088467171671,22.4420979476552,12.86112969811,26.4857616378565,17.9372122379037,30.5419399903928,20.4617032806429,21.4103315051077,19.3477328934587,19.7067650781393,12.7707117546032
-970,Grasp,12m,Parietal,29.302968214956,26.0360807909462,18.6818639605927,14.9559953543802,40.2674450768605,15.722224218221,19.234065209823,8.35580398490076,18.6755470072837,22.4791107703622,12.8349284904604,26.5122541753689,18.0005170702497,30.511104541854,20.4864419240835,21.5414638700896,19.3689591755708,19.6788541610039,12.8126232182215
-968,Grasp,12m,Parietal,29.2793121867533,26.0294090585637,18.712634282859,14.9597293653064,40.2920971496399,15.7714221445818,19.2017731446431,8.31921351758755,18.6416852628049,22.5127119458314,12.8192407473953,26.5371195491926,18.0626787513173,30.4800254840356,20.511615200619,21.6734360336837,19.3896666291416,19.6499414583202,12.8549453536357
-966,Grasp,12m,Parietal,29.2570527314008,26.0244539933925,18.7445557011414,14.9643810043044,40.3178240491304,15.8177056308032,19.167964933871,8.28212529618762,18.6076197225414,22.5429267091979,12.8111575915628,26.5602708019293,18.1238512318575,30.4492638533584,20.538318012707,21.8057931301714,19.409979813244,19.619942321887,12.897818936025
-964,Grasp,12m,Parietal,29.2364177818876,26.0208186731813,18.7772786698176,14.9696840790686,40.3446093412184,15.8610783850509,19.132838876315,8.2445190897176,18.5741370196114,22.5698945264622,12.8103515670133,26.5817206106215,18.184107522724,30.4188567786185,20.5665541631607,21.9382424091164,19.4300877097366,19.5888807323855,12.9414523798615
-962,Grasp,12m,Parietal,29.2165991177514,26.0184171414112,18.8106028835526,14.9754332799767,40.372396893903,15.9014784337526,19.0966581542478,8.20647254502116,18.540148197078,22.5938857778515,12.8166578428344,26.6018041870344,18.243277391286,30.3887671779631,20.5965571466062,22.07056390917,19.4502088994605,19.5568338362488,12.9857545800924
-960,Grasp,12m,Parietal,29.1974103015823,26.0176346902584,18.8443896535296,14.9816096335644,40.4011245885505,15.9388986351336,19.059761837031,8.16787097147581,18.5052454564576,22.6150475683788,12.8293277657416,26.6212907841081,18.3009691898487,30.358464883902,20.6282483773724,22.2025455393676,19.4718323138096,19.5238688762677,13.0303773732011
-958,Grasp,12m,Parietal,29.1788829919358,26.0182682867452,18.8785307176566,14.9883585499804,40.4308455877919,15.9731661834222,19.022590091777,8.12917607896308,18.4691770685481,22.6330771587563,12.8472480173884,26.6395102130168,18.35692559325,30.3276297158396,20.6602480269298,22.3339771058092,19.493746572281,19.4900429779983,13.074963887761
-956,Grasp,12m,Parietal,29.1611496578275,26.0205863410053,18.9129355060906,14.9959183831294,40.4618228366406,16.0041789118364,18.9856904753553,8.09023091833542,18.431735538376,22.6475905029501,12.8694510430496,26.6563267825264,18.4116798589645,30.2962272392802,20.6924936373331,22.4655526841322,19.5144722252798,19.4554538474273,13.1192861808196
-954,Grasp,12m,Parietal,29.1443592417732,26.024980224661,18.9475253173213,15.0046810968938,40.4940259181685,16.0319984721113,18.9496633860204,8.05113803840289,18.3928191539304,22.6583579677383,12.8953098283517,26.6718386822031,18.4642858618921,30.2645598314705,20.7248947011556,22.5994871915986,19.5332063398354,19.4202673700658,13.1632688024122
-952,Grasp,12m,Parietal,29.1290962896282,26.0317642799016,18.9822369656803,15.0154176418461,40.5272119568907,16.0566760824757,18.9151593419694,8.0121099541525,18.3524013159333,22.665177268735,12.9244506532995,26.6861403124543,18.5153443837868,30.2327273556758,20.757289410079,22.7335668683582,19.5494812624945,19.3848098607383,13.2069744652908
-950,Grasp,12m,Parietal,29.114739862345,26.0416424455121,19.0170628208883,15.0288338652444,40.5613917234413,16.0781089181035,18.8833032186477,7.97304644466483,18.3104913668981,22.6678777747639,12.9566463796671,26.6992737262309,18.5644244539227,30.2005304339901,20.7894661452603,22.8659175867237,19.5630141473539,19.3499777120627,13.2505531241014
-948,Grasp,12m,Parietal,29.1006182250128,26.0545846733342,19.0531638203838,15.044817502336,40.5968323229485,16.0962347852583,18.854965720559,7.93420100560108,18.2671666999711,22.6663895653685,12.9916037328697,26.7116137707157,18.6117523768076,30.1677530281451,20.8213400424386,22.9963408524175,19.5736411003257,19.3157804501282,13.293939980392
-946,Grasp,12m,Parietal,29.0866312606113,26.0699759149055,19.0900800196792,15.0629452477122,40.6339243564081,16.1111719309996,18.8298345340617,7.8959500718036,18.2226413393686,22.6607174720283,13.0289057519397,26.7229313051691,18.6578699862545,30.1342899344563,20.8527324224774,23.1274554640761,19.5813016801465,19.2822798687384,13.3370313132562
-944,Grasp,12m,Parietal,29.0726376750308,26.0876330534574,19.126392433821,15.0833566645848,40.6728754459754,16.1228262566491,18.8083840694701,7.85852215776756,18.1773589176145,22.6509390319605,13.0681714218608,26.7332612602444,18.7023554928376,30.1002246009966,20.8835350179542,23.255292400966,19.5860513277243,19.2493710403422,13.3796862935846
-942,Grasp,12m,Parietal,29.0587933072427,26.1075635209699,19.1616919080329,15.1065089167038,40.7140131121206,16.1309687115854,18.7919465602315,7.82185785860903,18.1317459768578,22.6371382286293,13.1089819910648,26.7437901899719,18.7448428125365,30.066260155883,20.913890478293,23.3793915458634,19.588167782458,19.2172843277692,13.4219177340293
-940,Grasp,12m,Parietal,29.0456720050564,26.1300112829951,19.1956038957619,15.1312540483007,40.7584408884803,16.1355528725317,18.7809190213832,7.78624733750998,18.086018285513,22.619201005967,13.1508807138676,26.7538409567704,18.7849411680749,30.0322058447332,20.9441893582526,23.4993504856494,19.5881240458003,19.1859889385022,13.4646136974528
-938,Grasp,12m,Parietal,29.0338179665781,26.1555188302837,19.2278343771919,15.1571201068968,40.806308435719,16.1366685060007,18.7739451648048,7.75182990164915,18.0411159884213,22.5969528273097,13.1935016036538,26.7625906265124,18.8222786414832,29.9982848569862,20.9739804811747,23.6147718660576,19.5852832660568,19.1550790169179,13.5084125659818
-936,Grasp,12m,Parietal,29.0232377877883,26.1843377050194,19.2594905162477,15.1836940912618,40.8567299445971,16.1345140132705,18.7730716293482,7.71851852656162,17.9986581956601,22.57031960132,13.2366183022825,26.7699310374007,18.856585873914,29.963595930015,21.0028104516627,23.7252744103815,19.5790360525161,19.1243887212784,13.5518144526695
-934,Grasp,12m,Parietal,29.0143441722804,26.2159608937972,19.2906860485299,15.2106596826332,40.9095748712098,16.1294377972231,18.7750106188392,7.68630265604133,17.9570691585925,22.539360084532,13.2801881873743,26.7756708522329,18.8876992896708,29.9280606555278,21.0303156309109,23.8304931520269,19.5691722433552,19.0938079940634,13.5944560409283
-932,Grasp,12m,Parietal,29.0077433514599,26.2504173979441,19.3195462146687,15.2377577856645,40.9649852363124,16.1220527376772,18.7805061229485,7.65527957420027,17.9155713738145,22.5043398458193,13.324610706872,26.7797120608418,18.9155469544865,29.8917187699035,21.0561752827125,23.9301039664078,19.5556408190671,19.0632941927568,13.6363041777077
-930,Grasp,12m,Parietal,29.0030940722118,26.2886346103264,19.3458652545539,15.2643624843786,41.0227727153674,16.1127982507716,18.7928449878114,7.62559436280971,17.8740649706292,22.4657418882652,13.3701192265482,26.7821315388032,18.9401063455332,29.8545412303479,21.0801984821452,24.0238053203419,19.5384840062643,19.0328878235705,13.6775400641681
-928,Grasp,12m,Parietal,29.0001250191302,26.3296428707417,19.3695410121399,15.2902095417797,41.0825640599046,16.1013889949795,18.8083827326792,7.59730871618559,17.8330786682507,22.4239160675583,13.4158128145215,26.7831176947311,18.9614070382705,29.8171594784361,21.1020688136452,24.111338420054,19.5178458335742,19.0027738903602,13.7193168892379
-926,Grasp,12m,Parietal,28.999018898226,26.3736515552519,19.3905086319783,15.3152124407579,41.1441298270968,16.0875975135743,18.8268991373791,7.57044572675543,17.7920730446481,22.3786991867945,13.4610967534124,26.7830367500431,18.9795284880824,29.7809425174503,21.1216140855936,24.1924802050535,19.4939113587081,18.9736145529452,13.762370399674
-924,Grasp,12m,Parietal,28.9996063144525,26.4215590850389,19.4086743832468,15.3393861608157,41.2085176196826,16.0715051590322,18.8484123451578,7.54522365713018,17.751132508611,22.3298518283774,13.5057024842693,26.7831417248867,18.9949752699869,29.7439881253858,21.1393030567397,24.2670578301324,19.4667867249423,18.9457511020613,13.8062015783264
-922,Grasp,12m,Parietal,29.0019346632627,26.4740717995838,19.4238484041258,15.362842655689,41.2751119363975,16.0533297301634,18.8728960971869,7.52187658313101,17.7102214112351,22.2772676365119,13.5494705417629,26.7829472141381,19.0083178165576,29.7063813189643,21.1568749794671,24.3349780687976,19.4364060395341,18.9185877886493,13.8496854219768
-920,Grasp,12m,Parietal,29.00599359496,26.5299206474761,19.4358662860993,15.385819539568,41.3431582691,16.0332328460696,18.9003875750197,7.5003855628843,17.6692084736198,22.2210415541515,13.5923028646922,26.782052585951,19.0189167169823,29.6680581123479,21.1739567934432,24.3964036546904,19.4026243771083,18.8924080534645,13.8919104992029
-918,Grasp,12m,Parietal,29.0117832496649,26.5886389067037,19.4447945605153,15.4086303346605,41.4124699452065,16.0113807316729,18.9295060662902,7.48080889935119,17.6280480365115,22.1613360255344,13.6341433353267,26.7804400550644,19.0269000079935,29.6290776068763,21.188669817242,24.4523115781247,19.3653275520431,18.868193768929,13.9323712738317
-916,Grasp,12m,Parietal,29.0193105016846,26.6500064486991,19.4507418533629,15.431540045504,41.4834229559688,15.9881169268355,18.9597704153329,7.4633026088318,17.5869594514887,22.0979466449303,13.6749906190007,26.7780350526721,19.0326435433435,29.5897472063069,21.2004301947098,24.5028997646848,19.3244922278236,18.8451298271533,13.9706956991552
-914,Grasp,12m,Parietal,29.028788404701,26.7141190829426,19.4533965569593,15.4549296629163,41.5565212767755,15.9643731263296,18.9911440783061,7.44801359917661,17.5464767951854,22.0305595514432,13.714902497646,26.7747907422137,19.0361102165753,29.550211431325,21.2090219641084,24.5468785314845,19.2801746712222,18.8234244903568,14.0066344263519
-912,Grasp,12m,Parietal,29.0403848734688,26.7814524540516,19.4519428939028,15.479630069141,41.6301686700144,15.9407155010651,19.0238463296654,7.43598154846693,17.5074494163596,21.9590557166886,13.7540373231771,26.7707005175715,19.0372228354154,29.5107522890353,21.2143857729625,24.5837558955423,19.2324999082966,18.8034487603372,14.0400895778825
-910,Grasp,12m,Parietal,29.0540991625208,26.8522871269124,19.4462380080072,15.5081897387568,41.7041049951878,15.9170741560207,19.0583958413792,7.42634133347194,17.4707290857325,21.8834610455196,13.7926963078102,26.7658459498918,19.0360895746405,29.4721098866426,21.2160863285662,24.613396430081,19.1816588693568,18.7851288970406,14.0709904955945
-908,Grasp,12m,Parietal,29.0698263178568,26.9263740008361,19.4362622157242,15.5411082455802,41.778467475927,15.8952800424585,19.0955865820101,7.41856784304761,17.4367541414038,21.8038879913945,13.8310808905888,26.7604868286271,19.0328920045768,29.4346833782184,21.2138768632289,24.6357912672718,19.1279057178122,18.7685727981078,14.0990214480753
-906,Grasp,12m,Parietal,29.087812387213,27.0037406567322,19.4220458240622,15.5764489645535,41.8537385875344,15.8740491663643,19.1363448658751,7.41263904001054,17.4062055886005,21.7205141175251,13.8690845887943,26.7551666581397,19.027789478781,29.3990006966156,21.2077115740278,24.6510436527778,19.0715576074673,18.7536781583842,14.1238896444028
-904,Grasp,12m,Parietal,29.1082810466244,27.0851855612536,19.4036748391235,15.6158720374597,41.9296884085148,15.8529426010939,19.1812284021742,7.40851521555437,17.3770487775254,21.6335881703783,13.9066456332921,26.7500533508421,19.020864673893,29.3641683123527,21.1976654597477,24.6592907537115,19.0130422813237,18.7402318650602,14.1454164048432
-902,Grasp,12m,Parietal,29.131135779598,27.1708766349186,19.3812778319557,15.6579282518407,42.0060366376164,15.832017641017,19.2281763302292,7.40609978169914,17.3489730873151,21.5433671352414,13.9438150873352,26.7451008081525,19.0121853564012,29.3300881912854,21.1838928768844,24.660495379507,18.9529472496565,18.727995014651,14.1634707253342
-900,Grasp,12m,Parietal,29.1563375838015,27.2604043737263,19.3550401602109,15.7014059253408,42.0826676263824,15.8113519546082,19.2754807736185,7.40536488574266,17.3223493543427,21.4500712180174,13.9805965111955,26.7405392803464,19.0018901592157,29.2969361783203,21.1665956232302,24.6546450700258,18.8921458559025,18.716831953097,14.1779550369019
-898,Grasp,12m,Parietal,29.1841610812607,27.3545879919471,19.3252004714965,15.7462317937059,42.1596182391496,15.7910412914865,19.3223784073751,7.40638264588904,17.2980768911386,21.3539088814125,14.0168601528637,26.7373574857947,18.9902034210195,29.2650205546188,21.1458571920812,24.6419087079561,18.8310891265784,18.7067226160491,14.1887950332013
-896,Grasp,12m,Parietal,29.2151400182125,27.4533316240647,19.2920719608208,15.7921967923018,42.2376240278713,15.7712398261345,19.3685140222964,7.40889913438403,17.2765127343164,21.2551563824784,14.0524562099335,26.7350018287222,18.9774707174586,29.2347217447666,21.1216451993079,24.6226461454552,18.7697363906866,18.6976290549119,14.1959516599703
-894,Grasp,12m,Parietal,29.2499438163483,27.5561930056919,19.2560309063909,15.8393206255332,42.316261533127,15.7521873343411,19.4136530410683,7.41261441393079,17.257987233825,21.1547234238873,14.0872727572526,26.7336619809956,18.9640122749569,29.2063313562906,21.0939817331463,24.5973681254411,18.7086604007879,18.6893559948316,14.199406708285
-892,Grasp,12m,Parietal,29.2881976767468,27.6618741927899,19.2175538198592,15.887963378363,42.3954144666939,15.7341968608159,19.457453992466,7.41741078684914,17.2425336590446,21.0526123703057,14.1212513703894,26.7342432172531,18.950062108723,29.1799643934612,21.0629839888874,24.5667571633664,18.6486396151775,18.6818249651188,14.1991751269093
-890,Grasp,12m,Parietal,29.3310635248002,27.769758436853,19.1772385273113,15.937425349896,42.4747501672187,15.7173889012114,19.4994537360464,7.42329100146887,17.2296359257645,20.9491303162044,14.1543687564988,26.7371944866454,18.9358974258416,29.1556688596376,21.0288818072162,24.531530902992,18.590057854264,18.6753205148444,14.1952858019858
-888,Grasp,12m,Parietal,29.3778767220379,27.8800245131117,19.1358701392832,15.9875987815683,42.5533648202935,15.7018160424927,19.539284708977,7.43038146007011,17.2188373493638,20.8447529833288,14.1867504777273,26.7415360512615,18.9218460110525,29.133897379263,20.9921038966982,24.4920382130213,18.5335893802057,18.6695299006242,14.1877556621297
-886,Grasp,12m,Parietal,29.4290246794842,27.992550654695,19.0945426973031,16.0381136434972,42.6308414103358,15.6877530550483,19.5768722602129,7.43880589609627,17.2099747386564,20.7403321808033,14.2206387194768,26.7469109593677,18.9082730862233,29.1147823768589,20.9531123354428,24.4481294955462,18.4794737743822,18.6642997759508,14.1765762741119
-884,Grasp,12m,Parietal,29.4829278141347,28.1066042659847,19.0547905047166,16.0879433925543,42.7069593911083,15.6756278984961,19.6123325996604,7.44828272343404,17.2031358603625,20.6358289078512,14.2547559453766,26.7528359951276,18.8956335044836,29.0984083684389,20.912308268886,24.3996173772821,18.4281919429946,18.6597186581439,14.161733678369
-882,Grasp,12m,Parietal,29.5393618008959,28.2222136605752,19.0182819632949,16.1368580579726,42.7815946243341,15.6654155473727,19.6453012625445,7.45859753838732,17.198557419521,20.53084179396,14.2879958720321,26.7588248092521,18.8846120937419,29.085476290412,20.8699565221218,24.3464996601342,18.3815378945154,18.6558946307553,14.1432527027359
-880,Grasp,12m,Parietal,29.5971773225574,28.337947369876,18.9859292096342,16.1848878208863,42.8547094270185,15.6569918753939,19.6751894291517,7.46964536296162,17.1967308159795,20.4252518590698,14.3203596485114,26.7646251109378,18.8763632939033,29.0773174579168,20.8261986746524,24.2889269441738,18.3385739258953,18.6531321532442,14.1212662951017
-878,Grasp,12m,Parietal,29.6558920504544,28.452895473389,18.9578905583859,16.2322216175723,42.9262836277935,15.650437603065,19.7017011966901,7.48134093929332,17.1983498866013,20.3190668667818,14.3518641857048,26.7700874150401,18.87281577073,29.0735353197422,20.7811687602206,24.2270104052847,18.2992518144845,18.6514704871337,14.0959960085068
-876,Grasp,12m,Parietal,29.7151745242026,28.5667088286966,18.9348066319747,16.2790872102031,42.9962826652994,15.6461126097338,19.7247868744556,7.49362517174739,17.2027594580456,20.2122966120187,14.3824686810457,26.7751709555937,18.8741439692365,29.0730482419187,20.7350634931281,24.160789929495,18.2630044346887,18.6503427904314,14.0674822398756
-874,Grasp,12m,Parietal,29.7747862276255,28.6791289006769,18.9175146806048,16.3255742333851,43.06459226081,15.6445552328761,19.7445479124325,7.50645727826701,17.2095065354689,20.1050824092545,14.4120736374169,26.7799549196941,18.8796312041658,29.0756663728149,20.6881931964726,24.0903581687978,18.2300219792401,18.6496679138652,14.0358460408535
-872,Grasp,12m,Parietal,29.8346069276513,28.7897955139528,18.9054210510494,16.3716825182169,43.131114729163,15.6459490849532,19.7612382119297,7.51981301609888,17.2195197809544,19.9978338790546,14.440571037918,26.7845771808475,18.8876690143789,29.0818814341973,20.6410406634166,24.0159402568367,18.2007958359997,18.6494404910773,14.0013560525776
-870,Grasp,12m,Parietal,29.8945779367466,28.8983312895979,18.8985051106582,16.4172978146273,43.1958065637509,15.6504095090476,19.7752649650197,7.53368943579451,17.2321872896055,19.8907375946203,14.4678458803687,26.7886189441695,18.897990264455,29.0923401268512,20.5941805677192,23.9378689736121,18.176440048822,18.6493929064074,13.9644317063137
-868,Grasp,12m,Parietal,29.9546781952612,29.0045356159986,18.8953112712249,16.4621536068234,43.2586826685984,15.6578229492587,19.7871714728004,7.54811261239111,17.2465936336756,19.7844185777262,14.4937702560429,26.7919017612949,18.9106606629039,29.1075540935796,20.5481566130385,23.8565957147067,18.1563748446788,18.6492683853734,13.9256887736157
-866,Grasp,12m,Parietal,30.014986185202,29.108322264686,18.8957407739026,16.5059675347038,43.3197695600232,15.667794280127,19.7974809478185,7.56310557444833,17.2627436229378,19.6795781795571,14.5182809095055,26.7942323727379,18.9257890130081,29.1259996995277,20.5035720233875,23.7728956505277,18.1402043699093,18.6488815150885,13.8856632420663
-864,Grasp,12m,Parietal,30.0757219105876,29.2096126407422,18.9001381709063,16.5485291233703,43.3792105775321,15.6800503504937,19.8066264174158,7.57865068810092,17.2808648268793,19.5755259356751,14.5426114156611,26.7953426893897,18.9436325804262,29.1476383174678,20.4609598621006,23.6897172745459,18.1280782137062,18.6485344844217,13.8445893023485
-862,Grasp,12m,Parietal,30.1370382263558,29.3082903944556,18.907457107886,16.5897170383779,43.4376285710923,15.6941811994105,19.8150988233915,7.59471270929034,17.3010371287712,19.4720193594327,14.5667841890253,26.7950831307398,18.965465621291,29.1723712310314,20.4209080842669,23.608500247763,18.1205710205176,18.6486594171674,13.8024903417555
-860,Grasp,12m,Parietal,30.1994135362285,29.4042904463739,18.9174710450081,16.6296021556899,43.4943446202432,15.7098699201766,19.8236581475957,7.61129339970209,17.3230915430604,19.369106044716,14.5893505275203,26.7934517428331,18.9905763826581,29.2003056343128,20.3836830207998,23.5297834770191,18.1180248882328,18.6481432081091,13.7593154380862
-858,Grasp,12m,Parietal,30.2638684648473,29.4977314957081,18.9301520122206,16.6685599636282,43.5494097174392,15.7269725938236,19.8329265526491,7.62832252098298,17.3473586588517,19.2669446938443,14.6095499389606,26.7905603950865,19.0180431805654,29.2318960607827,20.3494640705852,23.4519017926584,18.1215945977239,18.6468910691994,13.7150865281929
-856,Grasp,12m,Parietal,30.3293640108075,29.5884178618077,18.9449680567822,16.7070994044222,43.6029129565465,15.7454007018665,19.842863921452,7.64572490101889,17.3746522068882,19.1657680376462,14.627180023441,26.7866179259733,19.0475666166788,29.2675980503793,20.3185586227761,23.373923915802,18.12983862793,18.6451292788326,13.6699280763584
-854,Grasp,12m,Parietal,30.3953332816981,29.6758686989954,18.961399752529,16.7443961550785,43.6549987264776,15.7651182456989,19.8537562286859,7.66354438553491,17.4039054381424,19.0658572505635,14.6421033374901,26.7819793407382,19.0790140234406,29.3085323094553,20.2916275450331,23.2959602657804,18.1428681440096,18.6434084568175,13.6240326685547
-852,Grasp,12m,Parietal,30.4615865710108,29.7597709447633,18.9791474053494,16.7798823362373,43.7072153567394,15.7861829094763,19.865452849712,7.68205664642785,17.4348083462528,18.9675289563378,14.654215325357,26.7773712030321,19.112287806845,29.3555124500218,20.2700892974164,23.2183781995822,18.159698026774,18.6411255286026,13.5775756354481
-850,Grasp,12m,Parietal,30.528212120657,29.8399055966848,18.9994649270877,16.8133838880157,43.7597757525814,15.808963026338,19.8776896257272,7.70168292198864,17.4678718275526,18.871199434752,14.6634426349701,26.7736969141595,19.1471119816336,29.4060314766398,20.2545337217481,23.1416908959579,18.1802225678508,18.6384257311136,13.5307372426966
-848,Grasp,12m,Parietal,30.5955434353542,29.9161769304129,19.0205957294824,16.8448030989365,43.8112568392133,15.8340298257586,19.8892837400579,7.72218179234977,17.503008353622,18.7774825008709,14.669745568834,26.7715631620336,19.1837160740379,29.4604678566491,20.2443137682106,23.0667686017133,18.2046229369205,18.6363094363522,13.4838120787481
-846,Grasp,12m,Parietal,30.6632857986076,29.9888186659821,19.0419509515113,16.8739407287506,43.8619278238658,15.8606370170845,19.9001338000229,7.74349110664843,17.5386183942618,18.6870080476367,14.6731033296627,26.7701229296853,19.2217377866322,29.5186952864877,20.2399711360459,22.9965164462378,18.2331687544677,18.6342382607631,13.4371240553406
-844,Grasp,12m,Parietal,30.7312628976975,30.0573545247607,19.0634242901389,16.9005474274006,43.9120933423405,15.8882825563309,19.9103386197606,7.76609666367737,17.574368351788,18.6002374010676,14.6735229838019,26.769377978472,19.2603427124257,29.5805620955205,20.2417088515088,22.9347790746296,18.2660397452581,18.6324945250222,13.3908657167044
-842,Grasp,12m,Parietal,30.7997409134549,30.1216354122681,19.0850716128907,16.9244115870663,43.9615819338667,15.9167997803152,19.9197874176586,7.78922641033414,17.6104357720419,18.5176930557264,14.6710345452112,26.7693766974644,19.2993747883941,29.6452038179905,20.249542839412,22.8779695036628,18.303483723592,18.6324891615664,13.3460580300731
-840,Grasp,12m,Parietal,30.8689382623506,30.1815028796235,19.1072036835731,16.9453495882925,44.0102843575726,15.9461119432534,19.9283155639752,7.81277765189714,17.6473278987617,18.4398105510872,14.6656901412757,26.7700497639079,19.3387704111274,29.7121630244227,20.2629132770779,22.8247648638214,18.3457623632531,18.6343894379569,13.3025538921217
-838,Grasp,12m,Parietal,30.9385006912908,30.236882592463,19.1304138380222,16.9632205029842,44.0583607813606,15.9761912957742,19.9357705025047,7.8366865599671,17.6841305860745,18.3665883161726,14.6575854012542,26.7712366411012,19.3786635551622,29.7812442293929,20.2816373127366,22.7753351396088,18.3922250262805,18.6386866198512,13.2599095765746
-836,Grasp,12m,Parietal,31.0082753316606,30.2877583042021,19.1550014131644,16.9779394647037,44.1060168069653,16.0068840359614,19.9419208208633,7.86094444027283,17.7209079237569,18.2973270157905,14.6469168985862,26.7728615007664,19.4193455219214,29.8523481906781,20.3055865673923,22.7301384772733,18.4417408258836,18.6454638939412,13.2181440158895
-834,Grasp,12m,Parietal,31.07824103959,30.3341721539652,19.1806783529519,16.989485816751,44.1533082863625,16.0379217768497,19.9465967327169,7.88563722064196,17.7582666994144,18.2318677971373,14.6340639622274,26.7748657486548,19.4608734880633,29.9254622965823,20.3346823438617,22.6918639299844,18.4936748347027,18.6541188543159,13.1770834551535
-832,Grasp,12m,Parietal,31.1475075928494,30.376207355468,19.2070989689525,16.9979166329214,44.2001614846617,16.0690929575552,19.9524125073091,7.9112057479908,17.796231232072,18.1703074456394,14.6190962009867,26.7772830887236,19.503479775943,30.0003393300126,20.3688057051469,22.6612339278443,18.5476962010225,18.664081158428,13.1366088736336
-830,Grasp,12m,Parietal,31.2158570469789,30.4139592754803,19.2340469557318,17.003438073534,44.2464400642535,16.1002351222161,19.9564724940945,7.93778857373605,17.833637368295,18.1126343029036,14.6019569367027,26.7803600120481,19.5466732730737,30.0764654950406,20.4074000848874,22.6370755517191,18.6036166881251,18.6749369235962,13.0966386962161
-828,Grasp,12m,Parietal,31.2833132909205,30.4475404979036,19.2614165576933,17.0068768736165,44.2922696469399,16.1312219880175,19.9584792782867,7.9650654417802,17.8700230995213,18.0586134988375,14.5827991378833,26.7844123200382,19.5902481405722,30.1534825421605,20.450715206465,22.6213386104214,18.6613483954481,18.6866021274863,13.0570536484769
-826,Grasp,12m,Parietal,31.350012459869,30.4770957182075,19.2890182141738,17.0082244406846,44.3375708444615,16.1620176046087,19.958405702787,7.99287480929728,17.9051838523037,18.0080617688695,14.561765233198,26.7892114861526,19.6341774103544,30.2317228720194,20.4985022446912,22.6198553499116,18.7208708494666,18.6989246096323,13.0177921960707
-824,Grasp,12m,Parietal,31.416085405514,30.5028339781279,19.3164367358554,17.0067540255163,44.3819210374495,16.1927451359075,19.9564228155989,8.02110578865513,17.9389902910716,17.9616332315882,14.5388814407363,26.7942550792709,19.6784927631729,30.3107593201542,20.5497833669053,22.6331570777838,18.7821947393896,18.7116185622724,12.9788538948858
-822,Grasp,12m,Parietal,31.4816885763251,30.5250306073254,19.3432171537498,17.0023422500286,44.4252668902328,16.2232497974857,19.9535269360702,8.04963642499836,17.9713671282856,17.9185901205504,14.5141280912823,26.7991885164234,19.7232980056075,30.390681494213,20.6039027821491,22.6574947588581,18.8453083010273,18.7244732782504,12.940232277186
-820,Grasp,12m,Parietal,31.548537204083,30.5443012356937,19.3690289235627,16.99491045613,44.4677503809854,16.2532275323132,19.9496481784234,8.07843187485897,18.0036629179109,17.8792605761998,14.4875324051867,26.8038687966171,19.7686917403359,30.4713618460993,20.6605464480312,22.6895093452374,18.9102362758581,18.7374539948052,12.9019586123532
-818,Grasp,12m,Parietal,31.6154663057333,30.5622498987085,19.3936378937626,16.9843757005811,44.5096969685414,16.2825835682897,19.9439342138848,8.10769835299085,18.0358733465035,17.8437467028854,14.4591696992464,26.8083515127132,19.8147617019678,30.5517629103439,20.7195035523031,22.7274718454249,18.9771570837164,18.7507036086668,12.8646704390707
-816,Grasp,12m,Parietal,31.6815494288405,30.580650955908,19.4168779495607,16.9707539956915,44.5518675470597,16.3114258364936,19.936331636697,8.13742604916432,18.0663545920471,17.8125143709224,14.4291644321959,26.8130029130739,19.8618190469824,30.6312330456713,20.7801802644517,22.7704031420849,19.0463148031814,18.7645257522313,12.8281310160287
