Time,Condition,Age,Cluster,connect_overtime_LA_EEG_12_P04_CTS_MTH_chanpair_12m.mat,connect_overtime_LA_EEG_12_P05_CTS_MTH_chanpair_12m.mat,connect_overtime_LA_EEG_12_P06_CTS_MTH_chanpair_12m.mat,connect_overtime_LA_EEG_12_P07_CTS_MTH_chanpair_12m.mat,connect_overtime_LA_EEG_12_P08_CTS_MTH_chanpair_12m.mat,connect_overtime_LA_EEG_12_P10_CTS_MTH_chanpair_12m.mat,connect_overtime_LA_EEG_12_P11_CTS_MTH_chanpair_12m.mat,connect_overtime_LA_EEG_12_P16_CTS_MTH_chanpair_12m.mat,connect_overtime_LA_EEG_12_P17_CTS_MTH_chanpair_12m.mat,connect_overtime_LA_EEG_12_P19_CTS_MTH_chanpair_12m.mat,connect_overtime_LA_EEG_12_P20_CTS_MTH_chanpair_12m.mat,connect_overtime_LA_EEG_12_P21_CTS_MTH_chanpair_12m.mat,connect_overtime_LA_EEG_12_P22_CTS_MTH_chanpair_12m.mat,connect_overtime_LA_EEG_12_P23_CTS_MTH_chanpair_12m.mat,connect_overtime_LA_EEG_12_P24_CTS_MTH_chanpair_12m.mat,connect_overtime_LA_EEG_12_P25_CTS_MTH_chanpair_12m.mat,connect_overtime_LA_EEG_12_P26_CTS_MTH_chanpair_12m.mat,connect_overtime_LA_EEG_12_P27_CTS_MTH_chanpair_12m.mat,connect_overtime_LA_EEG_12_P28_CTS_MTH_chanpair_12m.mat
-1500,Grasp,12m,Frontal,16.0549222368907,18.2882133753061,12.8626240814033,9.3724362141024,21.2279413068465,17.6509864118188,14.3667532576097,5.12749147610376,11.856776761192,8.55311737358888,10.7053969674625,9.76691907439321,14.1663253948152,30.870311077997,8.6383727156702,10.7532980809006,7.91037427600801,12.5057778845102,12.0660606093711
-1498,Grasp,12m,Frontal,15.9927709206984,18.202990105762,12.7958671834992,9.40038487742984,21.2617141862361,17.7063794229559,14.3875797166477,5.13865510407124,11.8480935485944,8.57001102007238,10.6309022321474,9.78375662729671,14.2012584839736,30.7882058983814,8.66049936764479,10.7618963308546,7.93568546661161,12.4890559308801,12.0849730418527
-1496,Grasp,12m,Frontal,15.9318393689864,18.1156180432141,12.7293680108164,9.42777521825072,21.2977658037796,17.7559531727077,14.4154308985062,5.14941109642508,11.8372698134435,8.58640369983915,10.5556858994463,9.79974053440513,14.2365355975563,30.7052817882242,8.68318063178246,10.7721996009286,7.96178437637146,12.4733025732436,12.1024685979571
-1494,Grasp,12m,Frontal,15.8723237484266,18.0262622668704,12.6631664347303,9.45438872690213,21.3357863434907,17.7997015110574,14.4530491092397,5.15966242939993,11.8243910514474,8.60215774131665,10.4798820023486,9.81482719364462,14.2716886286738,30.6217667149473,8.70590093691982,10.7836013140565,7.98814233396797,12.4583530858496,12.1184651851723
-1492,Grasp,12m,Frontal,15.8145527745646,17.9357341971487,12.5970810642345,9.48008721082849,21.3757697635424,17.8377135946167,14.4981752914598,5.16930150797643,11.8096028594993,8.61754959685496,10.4044581228752,9.82913950847631,14.3065067166222,30.537503664895,8.72838967671528,10.795710752278,8.0145611021979,12.4440873169249,12.1329510415455
-1490,Grasp,12m,Frontal,15.7588117949464,17.8442459327073,12.5307636296767,9.50474788461243,21.4180319895716,17.8702872306668,14.5482121355526,5.17825904649412,11.7930026392568,8.63262744679632,10.3308623381759,9.84281136512244,14.3408922973841,30.4538286796779,8.75042658607255,10.8082651458098,8.04099111949575,12.4302861206892,12.1459775948893
-1488,Grasp,12m,Frontal,15.7051301282498,17.7516477204157,12.4641234894087,9.52826840058583,21.4631915759892,17.89756937699,14.6031837468912,5.18652092697733,11.7746044942686,8.64707215723589,10.257290691629,9.85582427015015,14.3747582443147,30.3698861632046,8.77183833104041,10.8209819983328,8.06718333016224,12.4164790400819,12.1576740428809
-1486,Grasp,12m,Frontal,15.6536787989325,17.6582098468001,12.397265770439,9.5505703875248,21.5119002699322,17.9199715663577,14.6632078984504,5.19411117409101,11.7544707784731,8.66094581932322,10.1836706887369,9.86822662032025,14.4080736183695,30.2855312766005,8.7926668967635,10.8334830445378,8.09302478073137,12.4022197183155,12.1682520557573
-1484,Grasp,12m,Frontal,15.6050632737222,17.5642876863317,12.3302613814704,9.57160011525156,21.563143382927,17.9367351826783,14.7284023379656,5.20108040479911,11.7327278885711,8.67453717256343,10.1101641832598,9.8798525400843,14.4410118293013,30.201521596075,8.81276284239141,10.8454450432492,8.11805456548036,12.3869983693426,12.1779512663072
-1482,Grasp,12m,Frontal,15.5599818806869,17.4702667777577,12.2630935956217,9.59173781007011,21.6175507889683,17.9474702363756,14.7991853886577,5.20752629279513,11.7095583208426,8.68786508366863,10.0369237407354,9.89059980079433,14.4737843296745,30.1180000968038,8.83176144686618,10.8566919505324,8.14194699156621,12.3704948231637,12.1868897006538
-1480,Grasp,12m,Frontal,15.5184098492737,17.376786924802,12.1958696235093,9.61129555588078,21.674769256804,17.9521556389422,14.8761559640374,5.21361542528978,11.6852205213449,8.70094217234024,9.96402382186369,9.90059957596826,14.5063614460177,30.0349939267184,8.84955106614112,10.8672003760209,8.16450841575714,12.3525256078985,12.1950549265103
-1478,Grasp,12m,Frontal,15.4802320945676,17.284570322449,12.129034492749,9.63006812744021,21.7349038547003,17.9507949180024,14.9589616125775,5.21952642571842,11.659997713581,8.7136375522201,9.89143631595456,9.90995314378264,14.5393942376791,29.9528913598717,8.86603317955452,10.8770371461658,8.18559192037286,12.3329772615011,12.2024372489748
-1476,Grasp,12m,Frontal,15.4443147581004,17.1933410087243,12.0633457388857,9.64751402176226,21.7970025266985,17.9432871301798,15.0463833556771,5.22534037902419,11.6341128746557,8.72579192482127,9.81907780145145,9.91865164057704,14.5719897715937,29.8716621797184,8.88097425998543,10.8861793942141,8.20508715439509,12.3118297626526,12.2091492494806
-1474,Grasp,12m,Frontal,15.4101002006855,17.1033431206589,11.9990189650007,9.66345863130026,21.8619235422813,17.9294453851485,15.1373135378817,5.23099993603526,11.6078787862652,8.73731369296626,9.74686225129783,9.9269716358745,14.6042379628949,29.7915311931248,8.8941732611442,10.8943609496759,8.22291571112761,12.2890891806786,12.2156284275459
-1472,Grasp,12m,Frontal,15.3774391917811,17.0148884705969,11.9357990249731,9.67787374167826,21.9285251179456,17.9092502609885,15.2309914372275,5.23651597597065,11.5817144915803,8.74817863283689,9.67474172751425,9.93529302771039,14.636380574457,29.712774517116,8.90549466277269,10.9011997903671,8.23904776104002,12.2651056410309,12.22197241653
-1470,Grasp,12m,Frontal,15.3463283011203,16.9284304136362,11.8737775980194,9.69075758128374,21.9958612062696,17.882859526211,15.3270091890737,5.24244258805014,11.5556191854745,8.75844288042251,9.6027087348181,9.94323376782389,14.6692452753479,29.6355580974921,8.91486725538503,10.9063740738227,8.25369001036678,12.2394785342236,12.2282941323833
-1468,Grasp,12m,Frontal,15.3170867061625,16.8447111792795,11.8131429391358,9.70213080674526,22.06334537139,17.8499419518384,15.4251166981456,5.24841013621692,11.5294004349829,8.76828286544935,9.53080409899868,9.95065872786738,14.7026466077765,29.5599258820324,8.92215605177941,10.9096740863354,8.26684679783547,12.2122992307415,12.2345737515607
-1466,Grasp,12m,Frontal,15.2904744920866,16.7649167444319,11.7540802630364,9.71202088541109,22.1318156423353,17.8104589736941,15.5248967251181,5.25448173573104,11.5034331829751,8.7778306118682,9.45910757225677,9.95755879222571,14.7373429762699,29.4859253465937,8.92719575613072,10.9109406000274,8.27825057812894,12.1836771043592,12.2407983927922
-1464,Grasp,12m,Frontal,15.2654893230885,16.6896830411983,11.6963664466197,9.72044851771021,22.1993553803822,17.7645176198571,15.6259014253761,5.26080466030844,11.4772744270616,8.78706852085031,9.38774288485373,9.96393935930912,14.7732808989107,29.4137415532903,8.93002205851745,10.910017929248,8.28784721777033,12.1539109803501,12.2469625322989
-1462,Grasp,12m,Frontal,15.2417965039966,16.6193315719646,11.6397673590501,9.72743132168603,22.2654831054409,17.7122846928606,15.7277729414446,5.2673229562112,11.4506692483194,8.79612382362554,9.31688274167104,9.96979266544013,14.8091253821433,29.3436869549326,8.93095125859956,10.9067779782894,8.29558882481194,12.1236387502376,12.2529124169812
-1460,Grasp,12m,Frontal,15.2197877390942,16.5537603789761,11.5842281232552,9.73301247488533,22.3300771225645,17.6539140296503,15.8305832121937,5.27430371411404,11.423570589783,8.8055901530478,9.24675201048386,9.97512491769719,14.8445250081337,29.276051114896,8.92946657444226,10.9011764409625,8.30143226625297,12.0925956789976,12.2586176595207
-1458,Grasp,12m,Frontal,15.1998547399321,16.4927277745579,11.5298205462008,9.73727156953431,22.393148338859,17.5894222020071,15.9350801050092,5.28203516446773,11.3959271842436,8.81540401674338,9.17763178470821,9.98011484523425,14.8794208978206,29.2110282150087,8.92556916412177,10.8932480201053,8.30535340054842,12.0604931850731,12.2641738055876
-1456,Grasp,12m,Frontal,15.1815750872066,16.4369926937016,11.4767200668922,9.74033257329248,22.4547731681718,17.5186878426054,16.0404778747475,5.29011692012448,11.3677241906561,8.82507706056498,9.10984747823924,9.98508352548665,14.9139312032062,29.1490815571133,8.9193136409891,10.883025042307,8.30735884865031,12.0274376275233,12.269737537789
-1454,Grasp,12m,Frontal,15.1645713763059,16.3867269797093,11.4251598694442,9.74237701750761,22.5150196243389,17.4416124761214,16.1456351092808,5.29816500589535,11.3389904639238,8.8346041224873,9.04371576894799,9.98983637263276,14.9487015522885,29.0908345687021,8.91080462664616,10.8704742714852,8.30748400817698,11.9939562116046,12.2754820666732
-1452,Grasp,12m,Frontal,15.1484741448585,16.3423910403472,11.3753314036143,9.74366395406886,22.5741476042651,17.3582368672561,16.2504393044143,5.30603267131879,11.3098085695725,8.84406696858967,8.9794441345964,9.99427623248621,14.984163911173,29.0359888090977,8.90021059167274,10.8555650650569,8.30580606094061,11.9606417472188,12.2816247243538
-1450,Grasp,12m,Frontal,15.132973933875,16.3041539365936,11.3273326779471,9.74443957560829,22.6323902533158,17.2697759318813,16.3551187232434,5.31362678829958,11.280325206167,8.85346395764192,8.91699780886647,9.99822676222058,15.0194549953112,28.9844763001372,8.8878598346322,10.8383932594397,8.30252858463664,11.9279118022005,12.2887521554892
-1448,Grasp,12m,Frontal,15.1175595202176,16.2724503533947,11.2819761962176,9.74477790613712,22.6910830108262,17.1758854610953,16.4595295786898,5.32087932057795,11.2507384724945,8.86280425381045,8.85609058160848,10.0015632668294,15.0542854918554,28.9364942026647,8.87409112373022,10.8193306987573,8.29800593807708,11.8955391128841,12.2976815743375
-1446,Grasp,12m,Frontal,15.1020306509157,16.2476230555563,11.2398241358964,9.74471629629786,22.7485455303067,17.0758681015824,16.5637283436411,5.32776758226163,11.2212435232194,8.87278072555261,8.79636479185843,10.0042285552232,15.0885096505355,28.8928722921383,8.85894069918452,10.7993013476472,8.29202302699904,11.8633619103525,12.3087472832723
-1444,Grasp,12m,Frontal,15.0863564652369,16.2287230376678,11.2000391668623,9.74468546704145,22.8044903616705,16.969746029696,16.66793974337,5.33432594692931,11.1920014490225,8.88319283720612,8.73753548338931,10.0062156791661,15.1221373692568,28.8530197682102,8.8422991729317,10.7783280826556,8.28420532378233,11.8319559207595,12.3219954491966
-1442,Grasp,12m,Frontal,15.0706655831148,16.2149881512283,11.1635953584945,9.74495568102627,22.8590889227848,16.8575723829037,16.7724257238744,5.34056862641532,11.1633688643609,8.89454359913521,8.67941264503243,10.0076101195676,15.1553990119548,28.8177814375351,8.82383637550108,10.7555714435607,8.27439533609232,11.8013194076631,12.3376093054427
-1440,Grasp,12m,Frontal,15.0548685413045,16.2059985915801,11.1308958059264,9.74537431749425,22.9128453259193,16.7394648672339,16.877332796858,5.34615519471153,11.1350463703437,8.90664894598063,8.62188486705618,10.0085567519842,15.1886473338173,28.7867719468183,8.80353032946408,10.7305849135901,8.2625014534328,11.7709876937788,12.3555989695874
-1438,Grasp,12m,Frontal,15.038547122182,16.201532679944,11.10151086719,9.74616015182208,22.9657036220357,16.6156044871381,16.9821094253175,5.35095409260955,11.1068554008856,8.91904735307154,8.5649025618099,10.0090167414111,15.2218517234231,28.7592470219329,8.78150099038597,10.7030527053639,8.24881148838352,11.7411163278344,12.376309304996
-1436,Grasp,12m,Frontal,15.0213589600518,16.200927283449,11.0743070553442,9.74753290432731,23.0173441572576,16.4861546627566,17.0864301319732,5.35491107258371,11.0787501479377,8.93170693314327,8.50846664924341,10.0087296335213,15.2551374956596,28.7352454058693,8.75827594562094,10.6727808370386,8.23367613259937,11.7121966377993,12.3989551208527
-1434,Grasp,12m,Frontal,15.0030796393656,16.2043417535197,11.0489580334393,9.7497109897083,23.0675488077904,16.3512919742707,17.1896527150534,5.35797383418665,11.0507267511211,8.94449113305002,8.4526211458758,10.0076025849473,15.2885033305103,28.7147480075251,8.73404669170772,10.6396810168952,8.21627494081673,11.6843970468617,12.4234219814818
-1432,Grasp,12m,Frontal,14.9836231512729,16.211043410455,11.0252053454808,9.75359201160464,23.1164154788443,16.2112818047652,17.2914197831513,5.36009430688846,11.0228207283873,8.9571546076624,8.397448130925,10.0054987833417,15.3214803764198,28.6975645441603,8.70864544535806,10.6037443523026,8.19656670179357,11.6580553667333,12.4495971979776
-1430,Grasp,12m,Frontal,14.9630264891458,16.2204059340731,11.0029272114726,9.75969662810783,23.1638693477704,16.0664034470747,17.3916737364703,5.36124228540972,10.9951027411156,8.9698104012337,8.34306459684803,10.0022584497905,15.3537872994271,28.6835254958583,8.6821965929879,10.5650222009748,8.1745312490976,11.6329603823153,12.4774801371043
-1428,Grasp,12m,Frontal,14.9418152836609,16.2323978101212,10.9837518218921,9.76717365063028,23.2096953061021,15.9169112691082,17.4904666132961,5.36140887783238,10.9676846658958,8.98279106148187,8.28962799144134,9.99810615386414,15.38534450777,28.6728757254765,8.65486599606096,10.5236192336113,8.15016569493463,11.6085229262946,12.507968414424
-1426,Grasp,12m,Frontal,14.920408681317,16.247603998691,10.9663547074333,9.77639407097975,23.2540182252799,15.7631366810329,17.5877936735211,5.3606029220122,10.9407235211027,8.99592967321806,8.2373465929649,9.99314675272542,15.4160969553571,28.6652799703228,8.62734992315902,10.4796803084607,8.12348555420881,11.5848059270945,12.5409683900953
-1424,Grasp,12m,Frontal,14.8986510440078,16.265869897635,10.9505695694337,9.78788010604818,23.2965736797668,15.6056589267313,17.68351044711,5.35884979749665,10.914448449586,9.00866972581837,8.18647732623296,9.98726588735437,15.4458640589123,28.6610456486946,8.59927880339653,10.4333859372834,8.09452664913819,11.5625124729581,12.5768306926554
-1422,Grasp,12m,Frontal,14.8762855765248,16.2856571589709,10.9366805952266,9.80187421294118,23.3373295508407,15.4456588919612,17.7773989791884,5.35619119519598,10.8891603605414,9.02091320966302,8.13730687414033,9.98064814682302,15.4745082883336,28.6598274184021,8.57075448928105,10.3849692209852,8.06334501499836,11.5412285680388,12.6146794554137
-1420,Grasp,12m,Frontal,14.8533595379471,16.3067407935,10.9251540680202,9.81845255522599,23.3761913028525,15.282806309188,17.8692873528848,5.35268746583023,10.8649601194823,9.03274999345118,8.0901542092755,9.97319913173484,15.5018359316211,28.661708651596,8.54207627291762,10.3347619719149,8.03002058190881,11.5210714853506,12.6541981107255
-1418,Grasp,12m,Frontal,14.8301816663013,16.3295016008729,10.916663314943,9.83800185965808,23.4131470039355,15.1171863264008,17.9590965018298,5.3484252313421,10.8417967098552,9.04476622191831,8.04506320940022,9.96490938665626,15.5276539436898,28.6666621323153,8.5137488375726,10.2828938815895,7.99465884105592,11.5018199358925,12.6952255680301
-1416,Grasp,12m,Frontal,14.8071267024421,16.3540839421469,10.911627492553,9.86143468586398,23.4481477603602,14.9492306619338,18.0468452270695,5.3435425895389,10.819684460784,9.056527596621,8.00184802810696,9.95578750127459,15.5522061347187,28.674665597119,8.48560802422891,10.2291742001575,7.95739105283055,11.4832624049609,12.7376403072729
-1414,Grasp,12m,Frontal,14.7842471903961,16.3799762458223,10.9099069633125,9.88862314341078,23.4809346907081,14.7794878471266,18.1326388107429,5.3382408275696,10.7986840199339,9.06756079473348,7.96049455801393,9.94580961779528,15.5759520378656,28.6857526544869,8.45754968167952,10.1734643110494,7.91836749039389,11.4656007911155,12.7813302006596
-1412,Grasp,12m,Frontal,14.7611672012852,16.4068249339616,10.9112051975362,9.91833956636996,23.5112921432565,14.6086424944504,18.2166810778324,5.33263462187784,10.7789011469681,9.07777958069401,7.92110813628396,9.93527420783962,15.5982483793954,28.7003062443054,8.42967153486238,10.1157430751545,7.8777425971878,11.4490735655463,12.8262180026021
-1410,Grasp,12m,Frontal,14.7379276727766,16.4342215111139,10.9152565659148,9.9494861367284,23.5391728474013,14.4374789781036,18.2992776061114,5.32685054339184,10.7604957341039,9.08717541625591,7.88386348514399,9.92399627046816,15.619146018182,28.7187432584,8.40243149787785,10.0560821140111,7.83563705167301,11.4336873266209,12.8723793300827
-1408,Grasp,12m,Frontal,14.71458372241,16.4618031071425,10.9218541308862,9.98128437416319,23.5647272437861,14.2667674282505,18.3808701552676,5.32119825537998,10.7437188300818,9.09573059672477,7.84868186074562,9.91208277442447,15.638999039132,28.7407182628896,8.37596258877788,9.99462923592259,7.79213970051949,11.419214940835,12.9198919980422
-1406,Grasp,12m,Frontal,14.6914196873352,16.4891538015828,10.9307273698116,10.0131900949932,23.5888267833206,14.0971479505829,18.4620065477245,5.31592194841025,10.7289306735394,9.10349321652968,7.81517521322133,9.89956475698658,15.6583518111261,28.7663528937029,8.35008654781943,9.9315777271034,7.7473326959518,11.4055973026827,12.9686258157899
-1404,Grasp,12m,Frontal,14.6688589636416,16.5159343999915,10.9415658327103,10.0448238641379,23.6111448030463,13.9292456051346,18.5436333732121,5.31133817019724,10.7166034140727,9.1105127212597,7.78315839061581,9.88655646660331,15.6775408064543,28.7951955480628,8.32496491278496,9.86714531642939,7.7013217365462,11.3928814681237,13.018519046686
-1402,Grasp,12m,Frontal,14.6472231364167,16.5419420276539,10.9544144544941,10.0759246645463,23.6307300555266,13.7649727712775,18.6260094323653,5.30712300541214,10.7073621362478,9.11676542398015,7.75263520771311,9.87335108166396,15.6963702740339,28.8268873615547,8.30105366095394,9.8015550906141,7.65423796487484,11.3809604887425,13.0695491992662
-1400,Grasp,12m,Frontal,14.6263291105425,16.5670863175679,10.9690979055517,10.1063200861082,23.647758697303,13.6042570364301,18.7079295762843,5.30330870284596,10.7021108049106,9.12224369377147,7.72372176669137,9.86007083764754,15.7144534440902,28.8616722216857,8.27858155698902,9.7350381805546,7.60623931709372,11.3695625050264,13.1219461995786
-1398,Grasp,12m,Frontal,14.6065237337185,16.5913637221785,10.9857044600076,10.1358841863115,23.6626094553099,13.4477271240291,18.7887768207493,5.30000344048611,10.7002972318651,9.12692122182429,7.69662124335728,9.84631884518799,15.7314497247075,28.9003177513083,8.25724815577915,9.66784073621048,7.55750249993282,11.358611875197,13.1762721169418
-1396,Grasp,12m,Frontal,14.5882445176654,16.6148317760002,11.0047219881372,10.1645070868655,23.6752577506559,13.2960305246813,18.8690933896436,5.29754856578458,10.7012295347924,9.13079228572131,7.67163508220329,9.83230079493863,15.7471744566151,28.9416045238578,8.2369616613061,9.60028275898411,7.50822857015496,11.3488006264261,13.2318005188789
-1394,Grasp,12m,Frontal,14.5713965035519,16.6375371856305,11.0267444081592,10.1920559250268,23.6855612214255,13.1492303973359,18.9487113695143,5.29604263741845,10.7049700947728,9.13387886105484,7.64918279580824,9.81769318416108,15.7615972153522,28.9854961828078,8.21774806624474,9.53283336378878,7.4586410368887,11.3402053923997,13.2877819740758
-1392,Grasp,12m,Frontal,14.5556052306768,16.6594975310848,11.0515668542213,10.2183731439237,23.6935613206869,13.0078875296106,19.026533870865,5.29533557477705,10.7112791158858,9.13609920820973,7.62977738499312,9.80230544301606,15.7747686166204,29.0320878943189,8.19983774395447,9.46594699573393,7.40898785620413,11.3333075096128,13.3439313402881
-1390,Grasp,12m,Frontal,14.5403307296077,16.6808298742072,11.0789500636196,10.2433054249077,23.6986583616416,12.8721069678696,19.1023381756434,5.29551034422182,10.7199110696554,9.13725181443859,7.61349134269852,9.78613043626819,15.7866909656939,29.0815935265573,8.18381204710479,9.39987504279168,7.35955012652483,11.3275155785095,13.3999976595038
-1388,Grasp,12m,Frontal,14.525320523926,16.7021919966098,11.1086590085628,10.2667375761245,23.7006578799597,12.741768383282,19.1759239020928,5.2967585057547,10.7311405594885,9.13725850504099,7.59987544280749,9.76930915347915,15.7973536680804,29.1339840607355,8.1695723265078,9.33498019866742,7.31067268402052,11.3229250619609,13.4558142968211
-1386,Grasp,12m,Frontal,14.5105683999859,16.7230341953963,11.1398548256379,10.2886283740763,23.6996645527759,12.616374019668,19.2471158495109,5.29917868095242,10.7446899363113,9.13614238416278,7.58865827307638,9.75191578605071,15.8069189780196,29.188808596687,8.15666201708865,9.2716355282931,7.26317185166864,11.319806350301,13.5112271067275
-1384,Grasp,12m,Frontal,14.495846325102,16.7432631413846,11.1718779904473,10.3090974606005,23.6956906583386,12.4959974332504,19.3157829097271,5.30260265511903,10.7596717430245,9.13451299765473,7.57994220244163,9.73397311938753,15.8165367386582,29.2461066046893,8.14502740716543,9.21017250586937,7.21761034969678,11.3186191762287,13.5665144711084
-1382,Grasp,12m,Frontal,14.4809231229284,16.7631077707034,11.2043238071766,10.3285808382715,23.6888887495316,12.3810974399546,19.3818058801585,5.30668528016467,10.7758354711115,9.13194186464121,7.57426633046294,9.715590342306,15.8252691053142,29.3054137004753,8.13484544300658,9.15101837462166,7.17444019863723,11.3198511788853,13.6221588828068
-1380,Grasp,12m,Frontal,14.4655063529779,16.7841369457984,11.2371092499915,10.3472170735708,23.6797724188995,12.2720258311644,19.4450569935828,5.31130583297604,10.7930107140174,9.12853297117856,7.57142864151225,9.69676671809052,15.833293377441,29.3662730212529,8.12659488547187,9.09475359701915,7.13345225475809,11.3242514688478,13.6766092494201
-1378,Grasp,12m,Frontal,14.4493597475971,16.8071792300621,11.2707550572045,10.3645704636225,23.6684260288024,12.1691697364418,19.5053841862967,5.31642441752551,10.8110831138416,9.12477764115984,7.57078755066253,9.67743963199524,15.8409996175384,29.4279977053979,8.12034411263395,9.04211685454949,7.09486400280345,11.3310160104206,13.7295195488934
-1376,Grasp,12m,Frontal,14.4324313986966,16.8306852926724,11.3045491641722,10.3803627515958,23.6548222433111,12.0730942316577,19.5626239412556,5.32211736973135,10.8300238926839,9.12030420295598,7.57206679278168,9.65765567035508,15.8483166505003,29.4904213599581,8.11570620911197,8.9942504232087,7.05893858751572,11.3399950899367,13.7806982018836
-1374,Grasp,12m,Frontal,14.4148151967132,16.8550013280963,11.3384078072715,10.3945208959157,23.6389572316479,11.9837565337315,19.6165246075159,5.32882456572772,10.8498886928621,9.11523724228564,7.57520190557421,9.63762167544643,15.8550824432974,29.5534334813205,8.11280277915143,8.95387474535788,7.02572447774832,11.3509501874824,13.8300144523139
-1372,Grasp,12m,Frontal,14.396765101648,16.8795136526,11.373283251637,10.4078069201728,23.6210035495998,11.9012538174308,19.666740756019,5.33719689975571,10.8711650718843,9.1096996701656,7.58042952281695,9.61765437594735,15.8611357357781,29.616979394684,8.11203613053431,8.92483945005366,6.99520867752709,11.3638262945572,13.8775929771809
-1370,Grasp,12m,Frontal,14.3783346385092,16.9039957564055,11.4090414587525,10.4193529571373,23.6014299701709,11.8252174146693,19.7129245909875,5.34700154661802,10.8930519953021,9.10381828001154,7.58764585358827,9.59804533459065,15.8663154003068,29.6811380653057,8.11367123071278,8.90371706399699,6.96766815703459,11.3782659609891,13.9231641687864
-1368,Grasp,12m,Frontal,14.3598121952395,16.9282917707406,11.4453652006412,10.4290114227212,23.5821104386434,11.7553088630116,19.7548315137473,5.35781495570839,10.9152556571658,9.09790160552125,7.59626498238512,9.57874507325068,15.870859899749,29.7463515350393,8.11793901928799,8.88978847034484,6.94272319840223,11.3939907990193,13.9663640290007
-1366,Grasp,12m,Frontal,14.3410750973868,16.9520930816055,11.4822395446263,10.4367836428356,23.5621539005689,11.6914174312203,19.7923300917572,5.3690450871932,10.9375572545804,9.0923347931874,7.60603188807031,9.55977670364083,15.8742237697514,29.8126517596258,8.12490526457124,8.88346325142957,6.92040553434066,11.4107239251398,14.0070856685542
-1364,Grasp,12m,Frontal,14.3221800789022,16.9752987523084,11.5195782480003,10.4428072195048,23.5414018156308,11.6331533562084,19.8252754793912,5.38046574240963,10.959780454005,9.08696449203557,7.61714435197086,9.54138401906457,15.8760448732713,29.8797634558103,8.13476355962115,8.88518245916714,6.90074596599338,11.4283215556793,14.0452941915197
-1362,Grasp,12m,Frontal,14.3035376460734,16.9978157032185,11.5574522982048,10.4470381008576,23.5198956452586,11.5809915368442,19.8533509690953,5.39191646151072,10.9823431631965,9.08189157656377,7.63013970936404,9.52396390644144,15.8773727216724,29.9480952851302,8.14783978071377,8.89502976585353,6.88391345168353,11.4466827011459,14.0809961506644
-1360,Grasp,12m,Frontal,14.2853519685325,17.0194984569639,11.5959992095843,10.4493588204798,23.4977050589667,11.5343281525712,19.876132169995,5.40329685100338,11.0047792405549,9.07737157520707,7.64473797350349,9.50750360021308,15.8769045415095,30.0172040784477,8.16428625686081,8.91339390944506,6.86991465284354,11.4656098824036,14.114244666117
-1358,Grasp,12m,Frontal,14.2683497100245,17.0401113886902,11.6353172071636,10.4500012526352,23.4750621928904,11.4935617075242,19.8932239708813,5.41454045981898,11.0266615548188,9.07376139104742,7.66032463817102,9.49186653954984,15.8746613723232,30.0863020573553,8.18319764858992,8.94110198874765,6.85891116052399,11.4847857795686,14.1451391228358
-1356,Grasp,12m,Frontal,14.2514968304841,17.0593872112077,11.6754397896921,10.4496604811655,23.4519781842717,11.4591296923882,19.9043329508655,5.4256013082459,11.0478254837433,9.07128566097726,7.67675112121692,9.47701063953783,15.8708457290325,30.154722529068,8.20401694913434,8.97933478732958,6.85065623725584,11.5041487478075,14.1738224644165
-1354,Grasp,12m,Frontal,14.2349409750521,17.0772685157587,11.7159797197333,10.4477325070846,23.4280697586715,11.4308367814301,19.9092372798511,5.43642863900752,11.0681229469075,9.06989626641692,7.69400514074516,9.46285486454045,15.8656651758225,30.2224020152445,8.22651608389142,9.02821330540763,6.84554380036508,11.5236313773713,14.2003589669553
-1352,Grasp,12m,Frontal,14.2192438350965,17.0936272774431,11.7565532872154,10.444718253146,23.4036495360199,11.408586284474,19.9077809433259,5.44696323138198,11.0874615632363,9.06949752890892,7.71211792384068,9.44939386213487,15.859273569251,30.2892171551004,8.25060772207992,9.08657114736397,6.84329599086671,11.5430230721738,14.2247170224778
-1350,Grasp,12m,Frontal,14.2046495560562,17.108162559914,11.797053966179,10.4418688583452,23.3791566610917,11.3926648996483,19.8998460685298,5.45714960497055,11.1058109365744,9.0701044536181,7.73120814346785,9.43673627539607,15.8517385921988,30.3550981379092,8.2762301670347,9.15319057870036,6.84303796796347,11.5622258258352,14.2470542872826
-1348,Grasp,12m,Frontal,14.1927242087872,17.1214009894039,11.837395869295,10.4378295438882,23.3544821766536,11.3832396077778,19.8853560514144,5.46696883967253,11.1230248967484,9.0717175666165,7.75147731739891,9.42487532860842,15.8430004545671,30.4197165919573,8.30338086806601,9.22823226003668,6.84464666650975,11.5811698261271,14.2677664917256
-1346,Grasp,12m,Frontal,14.183300786982,17.1339125329631,11.8773300263489,10.4327354377171,23.3298133305273,11.3802337552487,19.8642652649059,5.47664274778159,11.1394409117197,9.0740413696366,7.77309867361175,9.41372919432646,15.8329638996646,30.4825962859448,8.33224589208667,9.31157738501264,6.8479645494062,11.5995658444154,14.28649549958
-1344,Grasp,12m,Frontal,14.176296224023,17.1446403152583,11.9163689641548,10.4265604105091,23.305466599194,11.383742878782,19.8365592011798,5.486496706628,11.1550772858653,9.07743599123344,7.79597727426972,9.40333608934818,15.8216007373983,30.5433327832377,8.36285596335131,9.40092854876472,6.85331595053588,11.6170475489718,14.3026731839764
-1342,Grasp,12m,Frontal,14.1707415088192,17.1535270455451,11.9537789790471,10.419115273588,23.2818638331293,11.3939099767262,19.8022544092668,5.49624302463676,11.1692475110065,9.08173030111711,7.8197987593945,9.39378308452411,15.8089750239153,30.6015534276587,8.39503463641953,9.49549222428888,6.86088794539281,11.6333882835676,14.3161178093263
-1340,Grasp,12m,Frontal,14.1662822573841,17.160675254346,11.9889498857853,10.4102371789569,23.2591072419671,11.4112567108743,19.7613928075823,5.50579973407812,11.1817642051009,9.08680930361055,7.84431896609031,9.38544186463067,15.7952363968395,30.6569544268295,8.42857264997889,9.59459710131706,6.86988969364378,11.6484844755659,14.3267894770327
-1338,Grasp,12m,Frontal,14.1633678615381,17.1662368350978,12.0215000676194,10.3998907955419,23.237084537709,11.4361241692798,19.7140496128866,5.51494458577464,11.1925116262344,9.09256461813219,7.86931359741508,9.37802516564578,15.7806172037382,30.7095303039768,8.46303261454448,9.69757063480655,6.8801469390194,11.6623810446996,14.3347077294151
-1336,Grasp,12m,Frontal,14.162077877413,17.170436977719,12.0511711224576,10.3880983661495,23.2161470643775,11.4681721085188,19.6603257424761,5.52352237047703,11.2014583618967,9.09888997360681,7.8945469073109,9.37118948046233,15.7654020734771,30.7590291170248,8.49815592975964,9.80373534416271,6.89160250875901,11.6752448526019,14.3399348319837
-1334,Grasp,12m,Frontal,14.1623007425037,17.1739318459847,12.077768066178,10.3746745927927,23.196491450702,11.5075448232023,19.6003524163978,5.53138655188165,11.2086335492205,9.10556116033886,7.91985830157851,9.36499391827135,15.7497774475688,30.8056008213777,8.53378144645336,9.91244459198686,6.9044510329623,11.6870984445245,14.3425904692564
-1332,Grasp,12m,Frontal,14.1635668820843,17.1767831553069,12.1011259919797,10.3595261924222,23.178267508901,11.5542858041367,19.5342860002064,5.53841509636033,11.2143192360931,9.11256601786962,7.94518491702959,9.3597071249204,15.7344950378786,30.8493971958733,8.56980245210477,10.0231233601855,6.91925614172339,11.6979568563047,14.3429103751665
-1330,Grasp,12m,Frontal,14.1653488708191,17.1789361349995,12.121100028605,10.3426442575996,23.1623072746009,11.6091504152781,19.4623106018062,5.5445444508987,11.2189579941656,9.11980804900119,7.97053283587326,9.35562520789176,15.7195343685881,30.8898231898868,8.60609963633435,10.1352911034008,6.93508930209497,11.7078808421731,14.3414275504595
-1328,Grasp,12m,Frontal,14.1675169190019,17.180419150481,12.137569749211,10.3240548115342,23.1483274951417,11.6713529473027,19.3846457915154,5.55006999786733,11.2214908948835,9.12706481413151,7.99594341566656,9.35238506284913,15.7041703394937,30.9265895378849,8.64255395842511,10.2485673087418,6.95262547367927,11.7173949888611,14.3385837773817
-1326,Grasp,12m,Frontal,14.1702614399672,17.1812933497041,12.1504380324717,10.3037951373226,23.1357847896308,11.7407095078659,19.3015256544466,5.55508659039711,11.2218011719758,9.13411183514645,8.02145395785447,9.34983921813336,15.6884019716497,30.9599026208146,8.67961330947666,10.3626504112298,6.97152302176845,11.7261915041825,14.3340634563426
-1324,Grasp,12m,Frontal,14.1739219479593,17.1809326400541,12.1596509221062,10.2819228233054,23.1248845121081,11.8161746687734,19.2132202661277,5.55897076734619,11.2199462556818,9.14085358328966,8.04712226821924,9.34847550730002,15.6725796801249,30.9901089096206,8.71658438164192,10.4772946766666,6.99130907860675,11.7340270581227,14.3276252452872
-1322,Grasp,12m,Frontal,14.1784786522503,17.1791688340944,12.1651960129365,10.2584999793308,23.1160333507781,11.8971810391477,19.1200234905908,5.56153179388258,11.2159007499972,9.14722525657367,8.07333917358742,9.3481556362282,15.6570278736672,31.0163453644301,8.7533652186479,10.5922335897083,7.01248752142928,11.7409870089538,14.3191820116561
-1320,Grasp,12m,Frontal,14.1838672804881,17.1760047642576,12.1671053554308,10.233584798757,23.1092435258034,11.9835328710106,19.0222519542878,5.56268583426405,11.2094858087133,9.1530277619696,8.10100131297079,9.34915775656537,15.6414054651566,31.0387388117511,8.7899598739542,10.7071246747848,7.03481391864434,11.7466886722344,14.3087428333063
-1318,Grasp,12m,Frontal,14.1901621796751,17.1714936026477,12.1654660324588,10.2072351290101,23.1041279515598,12.0745237622952,18.9202544300803,5.56234950590146,11.20065131559,9.15817121056493,8.12934193484844,9.35145440461385,15.6257894710161,31.0580895325296,8.82608032445814,10.8215822497968,7.05769137378411,11.7509663498522,14.2965654128992
-1316,Grasp,12m,Frontal,14.1971303076485,17.1656629912767,12.160415240272,10.1795205451497,23.1006706650111,12.1693716047093,18.8143948472423,5.56044542773955,11.1893845259306,9.16269219707197,8.15779852486222,9.35465157059116,15.6105768646903,31.0741111105535,8.86165961934272,10.9352509509965,7.08109540476088,11.753872661642,14.2832763030075
-1314,Grasp,12m,Frontal,14.2047580607316,17.1585268653766,12.1521519316293,10.1505506645027,23.0989114499659,12.2671161574748,18.705066962467,5.55691394379098,11.1756839213993,9.16610784042166,8.18624203069347,9.35854641222472,15.5958179279356,31.0859128381768,8.89658458458544,11.0478634472709,7.10499881076216,11.755499086537,14.2684007466603
-1312,Grasp,12m,Frontal,14.2133366856363,17.1501412344705,12.1408935169776,10.120443973178,23.0990173599657,12.3667362776368,18.5926887474759,5.5517159690557,11.1595510140694,9.1686012706919,8.21468409444021,9.36295907401505,15.5813453121214,31.0932624390508,8.93074059505556,11.1592393292655,7.12923756814117,11.7564290801798,14.2518966176704
-1310,Grasp,12m,Frontal,14.222806944083,17.1406414585267,12.1268063833894,10.089553692306,23.1013592801579,12.467389177954,18.4777021624992,5.54483827277893,11.1409958293789,9.16979226476067,8.2431241700574,9.3677280392439,15.5670413236519,31.0961291041405,8.96451160556148,11.269210950431,7.15359768773126,11.756092404385,14.2338635653265
-1308,Grasp,12m,Frontal,14.2327147610747,17.1302095508744,12.1100344017809,10.0586979299403,23.106125198388,12.5684149767753,18.3605783312228,5.53629239857689,11.1200526052614,9.16963803436577,8.27142511233181,9.37280050135094,15.5529246629446,31.0946175250004,8.99806167401028,11.3775680485514,7.17792512801933,11.7541122223573,14.2143679298477
-1306,Grasp,12m,Frontal,14.2431436598233,17.118966064609,12.0907679289564,10.0270814700103,23.1132133571975,12.6692887751099,18.2418131657696,5.52618207440013,11.096777304608,9.16823038222616,8.29948391866504,9.37848001118439,15.5391498406451,31.088665411759,9.03113374549265,11.4841212893655,7.2021311938993,11.750445986279,14.1934385613437
-1304,Grasp,12m,Frontal,14.2545690116788,17.1068595131838,12.0692513621682,9.99486176003548,23.1227580737537,12.7696155621387,18.121944357731,5.51469421305835,11.0712271484679,9.16562491469912,8.32735307591718,9.38448297616125,15.5259497586087,31.0781999188931,9.06378482785175,11.5887869220941,7.22618757755034,11.7449419606588,14.1713712083206
-1302,Grasp,12m,Frontal,14.2673901980684,17.0938208276888,12.0457486725224,9.9621936867331,23.1344589861527,12.8691831482616,18.0015381089289,5.5016256839796,11.0434515216394,9.1614911362863,8.35521037750038,9.39087895867576,15.5135888583878,31.0632975477338,9.0960398336399,11.6915697645431,7.25013371780733,11.7376542057208,14.1483360829891
-1300,Grasp,12m,Frontal,14.2814028569418,17.0798989552739,12.0205591936977,9.92934695791248,23.1476428201603,12.9689893075141,17.881228456045,5.48693455383588,11.0139152440216,9.15563098746626,8.38324959074443,9.39769271008381,15.5024724824801,31.0440496924284,9.12774181991282,11.7924468869012,7.27415085974489,11.7284021422304,14.1239711846083
-1298,Grasp,12m,Frontal,14.2963456026681,17.0651981925052,11.9940549183462,9.89664939783478,23.162006251501,13.0684490807148,17.7618282461188,5.47067055212569,10.9825040007227,9.14796213674779,8.41151449386479,9.40499672504171,15.4932567341083,31.0204262789219,9.15881452386606,11.8912105888556,7.29850202727406,11.7171717341906,14.0983399761625
-1296,Grasp,12m,Frontal,14.3122869165162,17.0499213781958,11.9667492290192,9.86400415735451,23.1772805119876,13.1666508680114,17.6452904651664,5.4530516369746,10.9489520015367,9.13844134040946,8.43991646936893,9.41281192001547,15.4860569915999,30.9924652867217,9.18934078478254,11.9875618427362,7.3231287757355,11.7040806884129,14.0716255678141
-1294,Grasp,12m,Frontal,14.3293043431627,17.0343886041468,11.9394270701189,9.83107401269742,23.1932985172543,13.2635103852226,17.5338010646146,5.43415152652899,10.9133332104644,9.12706352256116,8.46823012904127,9.42106016311183,15.4803816648798,30.960541016718,9.21959776116636,12.0812468895177,7.3479476820734,11.6894840761627,14.0440916484315
-1292,Grasp,12m,Frontal,14.3476694236672,17.0190106237648,11.9134267481337,9.79766484090154,23.2099223193976,13.3590980223466,17.427387907179,5.41372843863518,10.8757737259649,9.11388402771616,8.49624772916633,9.42986714608774,15.4761174500062,30.9251231221987,9.24943164820047,12.1720860547362,7.37301262510025,11.6738931500585,14.015988504009
-1290,Grasp,12m,Frontal,14.3672829738961,17.0042317452831,11.8901407212049,9.76369049297522,23.2272015466593,13.4536298844547,17.3274839711361,5.39175130145744,10.8364183685155,9.09902740937944,8.52393959981073,9.43911922405547,15.4732001400709,30.8859683033822,9.27844813253858,12.2599499876828,7.39816445656554,11.6571219920725,13.9875007828207
-1288,Grasp,12m,Frontal,14.3877557149039,16.9906938487059,11.8700361193252,9.72913390458555,23.2451260001006,13.547121130781,17.2336018976299,5.3683057484422,10.7953497332396,9.08266656941332,8.55138817802588,9.44860116683036,15.4714416836507,30.8432538556002,9.30662579699026,12.3447541996048,7.42318710956595,11.6392444353634,13.958834120058
-1286,Grasp,12m,Frontal,14.4089924694967,16.979432561959,11.8530650319647,9.69403319075758,23.2647293905815,13.6394497853483,17.1456846321553,5.34355853160977,10.7525532696027,9.06499777034687,8.57864372529932,9.45831634733873,15.4707259189947,30.7972814600207,9.33394943217554,12.4264635303146,7.44794239173258,11.6203818033859,13.9302052156374
-1284,Grasp,12m,Frontal,14.4309921047348,16.969296281371,11.8389614198191,9.6585118474532,23.2854790461684,13.7309037344939,17.063522345818,5.31758533783583,10.7080099584294,9.04633144862252,8.60562082319385,9.4681740399098,15.4714038585732,30.7484215489298,9.36039402642157,12.5051072420885,7.47233353981727,11.6006255154405,13.9017196702258
-1282,Grasp,12m,Frontal,14.4533664888489,16.9598982649879,11.8274183520697,9.62315137852568,23.307231313168,13.8219275964666,16.9869014776061,5.29036784875879,10.661749030917,9.02682500728936,8.63217012812026,9.47770654972816,15.4731185762863,30.6970012488732,9.38635874108184,12.580785938985,7.49629533526028,11.5799773562217,13.8732673053356
-1280,Grasp,12m,Frontal,14.4758896745128,16.9510335632591,11.8182591672927,9.58845256723601,23.3297957549041,13.9120258050245,16.9161469057522,5.26198115109334,10.6138403269083,9.00646176512933,8.658168542391,9.48671737344599,15.4750088939999,30.6430094530059,9.41192024770172,12.6536431209937,7.51980711703427,11.558575978491,13.8446662956288
-1278,Grasp,12m,Frontal,14.4983662407138,16.942827469181,11.8115270939253,9.55641384156574,23.3527454265902,14.0008271920813,16.8519234109156,5.23256106062229,10.5643668922794,8.98536405823016,8.6841069470784,9.49508076179245,15.4768865162631,30.586439922686,9.43681001119663,12.7237998066428,7.54290026761862,11.5363847113832,13.8158327032658
-1276,Grasp,12m,Frontal,14.520663511754,16.9349903758729,11.8074885996129,9.52455522518991,23.3756870829072,14.0878518423177,16.7947929253869,5.20223705410491,10.5134108510412,8.96373240671458,8.71136486981946,9.5027011135317,15.4786026362079,30.5272311374896,9.46101866990103,12.7916688625683,7.56571779333686,11.5133635842342,13.7869480017028
-1274,Grasp,12m,Frontal,14.5424706992354,16.9276909882324,11.8066330675868,9.49240324457925,23.3981941274164,14.1726890874521,16.7449104500792,5.17105995479136,10.4610469041405,8.94179470940568,8.73774800753981,9.50952482140809,15.4800592974451,30.4655066829028,9.48459222615001,12.8569992149127,7.58828198194042,11.4897792783241,13.7580691636263
-1272,Grasp,12m,Frontal,14.5636085686873,16.9212439319805,11.8107996888795,9.45985883728967,23.4200905917535,14.255131699203,16.7050835921317,5.13904394816798,10.4073507946069,8.91996368399342,8.76305519592681,9.51552266068629,15.4812420487328,30.4018880319096,9.5074444713084,12.919213962712,7.61040837687822,11.4661493155438,13.7288211124332
-1270,Grasp,12m,Frontal,14.5844210948328,16.9151388854099,11.8187011842892,9.42758993019723,23.4423797816511,14.3350756146536,16.6742264470076,5.10625250014662,10.3524245162568,8.89914830656454,8.78713605134502,9.52068859580973,15.4819595135386,30.3367606565535,9.52948070163878,12.977956897955,7.63197087304511,11.4427674831208,13.6995327166355
-1268,Grasp,12m,Frontal,14.6047089223633,16.9089511870996,11.8297441970825,9.39550707411356,23.4637068106131,14.4124678373975,16.6501938324661,5.07281686552355,10.2963950192453,8.87911290541191,8.80983801887388,9.52523912707836,15.4817202926711,30.2697466550871,9.55052675204669,13.0329376594264,7.65289494107837,11.4195383159065,13.6702174048131
-1266,Grasp,12m,Frontal,14.6245954343419,16.9028122030435,11.8461091915896,9.36376395011517,23.4835537865741,14.4872976634919,16.6327539300962,5.03894548464576,10.2394146079577,8.859444424746,8.8310116312173,9.52935485180682,15.4800974417958,30.2006915279946,9.5705349277928,13.08395380976,7.67316782765523,11.3975465462684,13.6404129167853
-1264,Grasp,12m,Frontal,14.6439264038363,16.896688032191,11.8665626822737,9.33263462379863,23.5015028776105,14.5595937532145,16.6215526164062,5.00491712535926,10.1816653363797,8.84017201131034,8.85051685572275,9.53292258834091,15.4768149312596,30.1296726140323,9.58955943485416,13.1308738135109,7.69284837390516,11.3760506838434,13.6103364949179
-1262,Grasp,12m,Frontal,14.6625043422154,16.8905263234563,11.890094706622,9.30129172911541,23.5177413136928,14.6294207022516,16.6161104046284,4.97101598609738,10.1233788761121,8.82140585887947,8.86822349327221,9.53562573985872,15.4716950931464,30.0579585130775,9.60762198963786,13.1736149576554,7.71214147853798,11.3548213395862,13.5803755976317
-1260,Grasp,12m,Frontal,14.6804322870343,16.8843612836723,11.9176057559739,9.2700143322158,23.5328544448082,14.6968948557558,16.6158863980167,4.93746845261813,10.0649761836707,8.80304130431574,8.88401678232386,9.53746837363609,15.4646400272841,29.9847005040281,9.62471920185836,13.2121356590686,7.7311217641465,11.3339053686166,13.5506183486474
-1258,Grasp,12m,Frontal,14.6979006706805,16.8782985699433,11.9479395387754,9.23883060534334,23.5463465119496,14.7622148639531,16.6203226109547,4.90458699567632,10.0069126646126,8.78509388869578,8.89780211470414,9.53851238332102,15.4556370906598,29.909573385123,9.64064567374809,13.2464232996664,7.74966848759437,11.3134796357821,13.5209386959468
-1256,Grasp,12m,Frontal,14.7154565458312,16.8728622065416,11.9805262378612,9.20742072890406,23.5584437090279,14.8256751393615,16.6288854380775,4.87270729441555,9.94916908880571,8.7676129190586,8.90954717179881,9.53869803922484,15.4448157622514,29.8327344811768,9.65565812076111,13.2764949681076,7.76781027930357,11.2940051147349,13.4911500190977
-1254,Grasp,12m,Frontal,14.7336337432306,16.8679462587034,12.0151476647015,9.17564065192895,23.5694516698221,14.887423189643,16.6410789728099,4.84219733018712,9.89193550415095,8.7506584040559,8.91930836929078,9.53816398619277,15.432509722262,29.7542889418534,9.6695756472849,13.3023774407155,7.78547686876951,11.2761113129116,13.4609096503013
-1252,Grasp,12m,Frontal,14.7525394203734,16.8631632470507,12.051625817429,9.14366580999398,23.5785783708078,14.947310507884,16.6564904405266,4.81351814032241,9.83556093167438,8.73436085857864,8.92692362674217,9.53700153355836,15.418945519029,29.6742642734593,9.68216808522297,13.324120919115,7.80256454216934,11.2594211006654,13.4300439818168
-1250,Grasp,12m,Frontal,14.7722254461042,16.8584439888482,12.0896787644237,9.11263210000977,23.5851654041322,15.00518711852,16.6747897885314,4.78670191657991,9.7803868397076,8.71889596770723,8.93222580066803,9.53510596726765,15.4037879703807,29.5928062341491,9.69339526942206,13.3417833929975,7.81904497795965,11.2438275343523,13.3984990021718
-1248,Grasp,12m,Frontal,14.7924395129285,16.853766062962,12.1292067658045,9.08228945897269,23.5887859424419,15.0610507823285,16.6957299169689,4.76227266313137,9.72685482078939,8.70449932937457,8.93511462061446,9.53237754178467,15.3865931264923,29.5100933859688,9.70312926317521,13.3554343169884,7.83493089949936,11.2293633855283,13.3662005071666
-1246,Grasp,12m,Frontal,14.8131590744264,16.8492972903999,12.1713101171214,9.05300486945491,23.589122897536,15.1150075125318,16.719112847223,4.74031792095153,9.67574790407692,8.69126497914739,8.93548615330469,9.52881608290117,15.3670407102045,29.4260355336761,9.71135282439462,13.365153268589,7.85022760261143,11.2160661642129,13.332856779216
-1244,Grasp,12m,Frontal,14.834089670072,16.8450904867837,12.2144597860623,9.02497080184329,23.5859571331939,15.1672031263721,16.7447209539403,4.72104203205321,9.6265106578754,8.67926727267121,8.93323298537972,9.52456806019408,15.3449245093119,29.3405838534586,9.71810003479663,13.3710273717598,7.86492193051578,11.2038912190412,13.2983240636815
-1242,Grasp,12m,Frontal,14.8546311758102,16.8411203236752,12.2586677612246,8.99821427231113,23.5791589983096,15.2177448609661,16.7722457325771,4.70447488327579,9.57897812461456,8.66865339280557,8.92825311557747,9.51962698678166,15.3201267217852,29.2539300091177,9.72343382797802,13.3731484947936,7.87900855140875,11.19278089049,13.2626435906743
-1240,Grasp,12m,Frontal,14.8744381733225,16.8374513297708,12.3044686754209,8.9725154309157,23.5686744308727,15.2666718534533,16.8012349183267,4.69047039501023,9.53347671353774,8.65947272689515,8.92045757828055,9.5138733322348,15.2925972134209,29.1664657394929,9.72739612785478,13.3716194588231,7.89250633286983,11.1828034393553,13.226098806621
-1238,Grasp,12m,Frontal,14.8936331414068,16.8340359210934,12.3517187585591,8.94804365313942,23.5544946135248,15.3140051924725,16.8311502098222,4.67896920393169,9.49085286359259,8.65181948702344,8.90977162668766,9.50737189101707,15.2623409117817,29.0788211822204,9.72998530528191,13.3665563136615,7.90546010711229,11.1741945426847,13.1892443486766
-1236,Grasp,12m,Frontal,14.9122620619417,16.8312028377131,12.3997292738791,8.92507461058289,23.536645444928,15.3598049352069,16.8614844560906,4.67002340523842,9.45075932926183,8.64581735481472,8.89613930519506,9.50049072615972,15.2294227898382,28.9917214519146,9.73134185854822,13.3581005336617,7.91794568329417,11.1674348668989,13.1523108958122
-1234,Grasp,12m,Frontal,14.9301125401697,16.8297763440233,12.4481090654407,8.90376936906226,23.5151821209637,15.404170428373,16.8918016641591,4.66338403861285,9.41272590820039,8.64154528228393,8.87952095173252,9.49335801158137,15.1939579137196,28.9054606987627,9.73182750992439,13.3464125749008,7.93004224872231,11.1633321535474,13.1151255069426
-1232,Grasp,12m,Frontal,14.9469594097676,16.8289615294328,12.4968575137714,8.88431124070903,23.4902106855463,15.4475901383315,16.9217570372951,4.65901694540388,9.37644634729542,8.63904793240906,8.85989756463426,9.48637421208869,15.1561151760071,28.8199092535617,9.73115565660993,13.3316705025662,7.94179613937424,11.1615936211019,13.0772949345577
-1230,Grasp,12m,Frontal,14.9630378540917,16.8282129966134,12.5455251130085,8.86745196902086,23.4618786456524,15.4894823353733,16.9510965542098,4.65714341513389,9.34241148161042,8.63841340444102,8.83726198158877,9.47930897828567,15.1160824166449,28.7350426444583,9.72893377351072,13.3140454831212,7.95324886779262,11.162359485925,13.0392278257837
-1228,Grasp,12m,Frontal,14.9783213580857,16.8271479663303,12.593082493656,8.85307096690481,23.4303945270727,15.5294873524602,16.9796854372027,4.65814131472575,9.31021217611959,8.63980673829776,8.81162768759326,9.47197804573283,15.0740759358386,28.6512728069483,9.72506501364897,13.2936990728672,7.96451501752031,11.1650318611402,13.0003681421377
-1226,Grasp,12m,Frontal,14.9925915300609,16.8257104552805,12.6390135204971,8.84123132641113,23.3960073999029,15.5674108078323,17.0074600785683,4.6614984111268,9.27983044371164,8.6432287255746,8.78301975557661,9.46440419534249,15.0304072940341,28.5686695917233,9.71954061163798,13.2707764031233,7.97570789433783,11.1695204862766,12.9603950615574
-1224,Grasp,12m,Frontal,15.0058681321634,16.8242913048278,12.6830708156441,8.83156083646401,23.3590265981175,15.6030356587376,17.0342985609538,4.66692420040071,9.25127248935341,8.64865092717461,8.75148166911688,9.45665159245119,14.9851091605885,28.4874570917946,9.71233643934915,13.2454326904177,7.98677612615304,11.1757521931898,12.9189573276577
-1222,Grasp,12m,Frontal,15.0173653079583,16.8238514108223,12.7250963618536,8.82387665323533,23.3198278029146,15.6361289210672,17.0599458919029,4.67421371869947,9.2243659423059,8.65609782647032,8.71707952826593,9.44877594177314,14.9378931487938,28.4084369962362,9.70346504817312,13.2178441128719,7.99758780706394,11.1839501370058,12.875846190268
-1220,Grasp,12m,Frontal,15.0269215302748,16.824028402632,12.7649219818407,8.81838114499441,23.2788497682822,15.6665217825635,17.0841772128039,4.68351574474311,9.19893444311946,8.66566458870404,8.67990532274213,9.44090341027183,14.8886833113051,28.3311118669478,9.6929660133912,13.1882007840172,8.00808410627616,11.1936351038829,12.8309622706668
-1218,Grasp,12m,Frontal,15.0342742094002,16.8246298268154,12.8023093486969,8.81541909220664,23.236524195272,15.694139606159,17.1069862383254,4.694085905613,9.17487413187481,8.67749969772164,8.64004464503075,9.43329780703225,14.8375141643742,28.2551178794959,9.68084539529106,13.1567095800891,8.01826932827881,11.2045920740423,12.7842881618734
-1216,Grasp,12m,Frontal,15.0394453673654,16.8250823787257,12.836988115001,8.81514500223904,23.1931525247515,15.7190025920154,17.1288468811429,4.70575277751767,9.15215021998314,8.69152278634882,8.59754754946316,9.42548308705872,14.784472229336,28.1802396823703,9.6670881935927,13.1236353752019,8.0281949921534,11.2166749745201,12.7359047146028
-1214,Grasp,12m,Frontal,15.0423584157623,16.8252295864145,12.8687198283515,8.81770964607181,23.1489897289499,15.7412166024233,17.1503270952624,4.71838291067265,9.1307709497265,8.70778973568554,8.55247027843295,9.41743296611936,14.7296732471856,28.1065530467577,9.65172595427705,13.0891912938593,8.0379240694419,11.2298690133702,12.6860205448884
-1212,Grasp,12m,Frontal,15.0432111175887,16.8254746214622,12.8973403077467,8.82331858527251,23.1051376038671,15.7609989658211,17.1706982508157,4.73186201430563,9.11076788541689,8.72632907058294,8.50490689748746,9.40917781298511,14.6732917009218,28.0342779982271,9.635246816871,13.0533542398874,8.04744105540204,11.2442137053346,12.6351266410046
-1210,Grasp,12m,Frontal,15.0424349093732,16.8255797587848,12.922766579379,8.83218178090901,23.0613442375631,15.7792086457102,17.1890839720768,4.74612138110429,9.0921789275742,8.747301575801,8.45499081203215,9.4007305797385,14.6156470461472,27.9632476055579,9.61733520450296,13.0160047408374,8.05666605698526,11.2597229524902,12.5834423198798
-1208,Grasp,12m,Frontal,15.0406210576878,16.8253709474013,12.9450980949449,8.84454738292318,23.0176056194478,15.7957058528672,17.2050729363091,4.76106532423512,9.07505092310397,8.77124476230866,8.40289789850889,9.3923282877205,14.5572702490711,27.892915130199,9.59788803535284,12.9771027655035,8.06556413743154,11.2763413681175,12.5308383477572
-1206,Grasp,12m,Frontal,15.0381434427088,16.8248544548346,12.9652557745921,8.86057087707558,22.9742753520798,15.8101832012295,17.2184435935003,4.77666400402363,9.05943478133483,8.79840623983736,8.34885382098263,9.38426053526418,14.4983778993518,27.8232502948011,9.57694577189047,12.9366973390331,8.07417892971342,11.294026565535,12.477867852769
-1204,Grasp,12m,Frontal,15.0351399756041,16.8240563967147,12.9827023370651,8.88010670967007,22.9317448222504,15.8226802586477,17.229054681979,4.79291969535465,9.04535309276261,8.8278163251619,8.29313139876829,9.37597069290519,14.4392623106636,27.7549479844184,9.55457855524877,12.8948969862314,8.08304498295383,11.3129076483926,12.4248526319822
-1202,Grasp,12m,Frontal,15.0312710064844,16.8231289739264,12.9972734588253,8.9028646203302,22.890473623278,15.8329203739339,17.2368111057288,4.80990609322705,9.03282754191011,8.85903169353752,8.23599844804376,9.36765601358279,14.3807570670687,27.6876223893026,9.53087871003089,12.8518443732988,8.09178698371658,11.3333886831589,12.3718665544979
-1200,Grasp,12m,Frontal,15.0265690125192,16.8224800268686,13.0093529314856,8.92842808109287,22.8512805983311,15.8407343097377,17.2416670791402,4.82754956450942,9.02191905644395,8.891890257912,8.17763135288188,9.3591559156173,14.3242447584749,27.6211033732061,9.5059588971389,12.8077231442078,8.10031946249442,11.356195904055,12.3183999413549
-1198,Grasp,12m,Frontal,15.0214934968969,16.8230218538668,13.0189989211021,8.95656311409697,22.8153565078082,15.8459620745841,17.243656577506,4.84573128948513,9.01270286306602,8.92639267620342,8.11811651437436,9.34997292502925,14.2701721760014,27.5552778872522,9.47994317516384,12.7627635192557,8.10879839002585,11.3803717514307,12.2648726446106
-1196,Grasp,12m,Frontal,15.0158866867609,16.8244859856342,13.0257570012904,8.98758879157069,22.7823327365619,15.8483766065675,17.2429923163757,4.86445677321862,9.00524242169412,8.96248750725606,8.05755895395613,9.34008088694282,14.2183029960289,27.4901056672539,9.45295185851107,12.7171620984368,8.11728853338167,11.4055593850041,12.2104359627233
-1194,Grasp,12m,Frontal,15.0099497138084,16.826221708547,13.0293397740113,9.02119764671216,22.7528052697499,15.8477675492951,17.2400716645848,4.88409045028568,8.99969260974687,9.00000664348652,7.99618726424169,9.32962353520587,14.1685777446144,27.4256333532058,9.42510042316163,12.670943136598,8.12556923207011,11.43149575217,12.1551307804891
-1192,Grasp,12m,Frontal,15.0029025291303,16.8282661309085,13.0296377774199,9.05713774323742,22.7281266699819,15.8440018385646,17.2348322563149,4.90467039598983,8.99675548257092,9.03863684715894,7.93423430576709,9.31851375405481,14.1209653541892,27.3618378624437,9.39652661649925,12.6240120596991,8.13341578690673,11.4580060403954,12.09902119237
-1190,Grasp,12m,Frontal,14.994637163861,16.8305971000453,13.0266305795748,9.0952692118176,22.7080995920216,15.8370236024349,17.226838924016,4.92580177967404,8.99660275904695,9.07822294039351,7.87140768306961,9.30677246789272,14.0761090817463,27.2990004660173,9.36744481961495,12.5762913738859,8.14105724213131,11.4849768794753,12.0421953850069
-1188,Grasp,12m,Frontal,14.9854502185019,16.8330600348365,13.0203544335856,9.13565079326163,22.6924950770896,15.8268483389835,17.2158823589961,4.94720969925961,8.99822643011129,9.11878815314188,7.80744527853297,9.29461515062818,14.033821780738,27.237211163394,9.33792067392593,12.5277730195085,8.1484282727661,11.5125513524177,11.9847962576342
-1186,Grasp,12m,Frontal,14.9752791857913,16.8355839428407,13.0108772709196,9.17866449459266,22.6816961437874,15.8135612111577,17.2019268198871,4.96892526610249,9.00126231372731,9.16048328442089,7.74229651885335,9.28236853404059,13.9924822765721,27.1767384977323,9.30841605493256,12.4785239952459,8.15505596856848,11.541013049875,11.9270055624808
-1184,Grasp,12m,Frontal,14.9638959512401,16.8382620851843,12.998278769536,9.22560458620676,22.6765540828236,15.7973265394189,17.1850235678379,4.99088238033343,9.00543242395816,9.20319043657052,7.67602430237009,9.2702989443097,13.9519111028116,27.1178375535177,9.27893661381823,12.4286891644866,8.16078297694312,11.569893716532,11.8689913853933
-1182,Grasp,12m,Frontal,14.9522712027758,16.8417469802584,12.9826380206658,9.27579691845449,22.6778258540774,15.7783514832533,17.1652956739907,5.0128455556403,9.01051300869447,9.24659040738105,7.60878557737226,9.25887179545549,13.9121734021788,27.0602062963962,9.24940238105715,12.3784979636215,8.16558622428425,11.5987945624237,11.8109567830316
-1180,Grasp,12m,Frontal,14.9404112132261,16.8470113776705,12.964028596941,9.32841967396126,22.6876855432665,15.7567859084588,17.1429604292283,5.03473485129215,9.01647528125037,9.29055751129636,7.5408411555472,9.24749922901344,13.8734719817705,27.0046079150919,9.22001636458213,12.3282817545813,8.16961743574746,11.6275935716845,11.7531552564427
-1178,Grasp,12m,Frontal,14.9274303148417,16.8542707770429,12.9441372616406,9.38302459826275,22.7039278722053,15.7327312089029,17.1183853463213,5.05660098852053,9.0233279259252,9.33511074566206,7.47251915010615,9.2361746508335,13.835903222489,26.9515752887108,9.19099067516475,12.2785561108707,8.17312690763466,11.6561427780022,11.6958153364271
-1176,Grasp,12m,Frontal,14.9128515177088,16.8632215545223,12.9214758359376,9.43919182275317,22.725549782706,15.7063741185248,17.0921923025272,5.07861488846416,9.03085153064722,9.38038635415419,7.40406223389506,9.22524051777814,13.7995083696477,26.9014195219132,9.16256554637855,12.231084401706,8.17663914948072,11.6842393374895,11.6390584213992
-1174,Grasp,12m,Frontal,14.8967207828374,16.8735667841,12.8960086415811,9.49660647401977,22.7519435523992,15.6780651460891,17.0652612941042,5.10033094229585,9.03893910543666,9.42652619442925,7.3355505546881,9.2149276775128,13.7644466389361,26.8545943904493,9.13471965822021,12.1871239475918,8.18034016139875,11.7117510412583,11.5828974818427
-1172,Grasp,12m,Frontal,14.8793564247961,16.8849744264721,12.8678427290166,9.55518215700318,22.7824963269174,15.6481580617397,17.0381572656024,5.12157450670427,9.04751118070736,9.47368425535327,7.26697274741892,9.20527543831033,13.7310610562401,26.8114236769291,9.10748606210714,12.1453420345676,8.18363847478272,11.7386085934146,11.5274197399592
-1170,Grasp,12m,Frontal,14.8612092171868,16.8973187719121,12.8371298324529,9.61493076628871,22.8167670099847,15.6170967834905,17.010640874739,5.14235423466028,9.05646703212974,9.52156669674625,7.19826365314983,9.19618118186334,13.7003539736252,26.7721234890831,9.08101428211924,12.1046811469117,8.18620813270718,11.7648010946375,11.4729377654776
-1168,Grasp,12m,Frontal,14.8419149281581,16.9106831305274,12.8039863597865,9.67513743558886,22.854522637724,15.5850382665453,16.9824305109706,5.16275119871441,9.06564411519604,9.5698211792901,7.12939547620389,9.18763263144118,13.6730024329275,26.7361947563908,9.05544122005983,12.0648135552737,8.18794466108343,11.7907145845278,11.4195442400948
-1166,Grasp,12m,Frontal,14.8214493942683,16.9252598596397,12.768424718439,9.73548678470247,22.8959984486096,15.5514796984207,16.9535213976755,5.18254063591916,9.07506120704346,9.61844901251579,7.06042737019459,9.17955292150315,13.6487137247373,26.7033501516531,9.03104072157518,12.0255682967214,8.18877834620911,11.8164820184958,11.3671110067548
-1164,Grasp,12m,Frontal,14.800280221403,16.9411659638981,12.7304826596246,9.79584837244379,22.9408630831095,15.5165301195011,16.9238180719698,5.20150742589233,9.08551342981444,9.6674565540399,6.99149317111297,9.17188842313239,13.6285023581557,26.6735437686882,9.00824248275497,11.9869157561272,8.18847153405419,11.8417980646158,11.3157564787046
-1162,Grasp,12m,Frontal,14.7782082749859,16.9588221789077,12.6903002417126,9.85596725568292,22.9899329098165,15.4805288007214,16.8934163668096,5.21959819559182,9.09605686095911,9.71677440396488,6.92277638168205,9.16453358691423,13.6117403779815,26.6464911694846,8.98696016030169,11.9490124081255,8.18694533254928,11.8665776650623,11.2657513616586
-1160,Grasp,12m,Frontal,14.7554114643368,16.9779483692975,12.6481225808228,9.91541013559172,23.0442946740953,15.4443184030089,16.8623392325019,5.23674155155102,9.10653428954334,9.7662302834314,6.85449730606984,9.15762688688273,13.5977521816826,26.6216856124074,8.96717748543657,11.9120435838173,8.18413664734002,11.8907649102129,11.2178154599045
-1158,Grasp,12m,Frontal,14.732102106527,16.997790359751,12.604280048911,9.97365644307143,23.1020754068381,15.4088136983132,16.830204781443,5.25272698340444,9.11671517464782,9.81556050888976,6.78692517206988,9.15118963650354,13.5859453947244,26.5990715832706,8.94892118481486,11.8759329889895,8.18015719853185,11.9144016007923,11.1715912001373
-1156,Grasp,12m,Frontal,14.7086382958909,17.0183727066316,12.5591681142519,10.0302662245518,23.1622044370695,15.3740866034972,16.7967968337142,5.26736039688371,9.12637722103995,9.86455665428432,6.72045142689166,9.14509221295425,13.5760079837919,26.5789064017228,8.93217989211966,11.8408204180884,8.17536185436879,11.9376611937105,11.1264177460481
-1154,Grasp,12m,Frontal,14.6853515769505,17.0391879568784,12.5134087977928,10.0849780940404,23.2242558103867,15.339372774565,16.7621058362385,5.28050256315069,9.13537964162808,9.91309607562302,6.65584732747638,9.13936050083182,13.5678087108524,26.5613608128678,8.91689685584339,11.8072552072549,8.16943141424856,11.9605736058073,11.0821846719372
-1152,Grasp,12m,Frontal,14.6622435533863,17.0597498270043,12.4686515004191,10.1376163157698,23.2869082498161,15.3038054033484,16.7262355851089,5.29205866153901,9.14370650245051,9.9611292163904,6.5932516171371,9.13385244880187,13.5617653347061,26.5469896509045,8.90299138403833,11.7756446608101,8.16240140748238,11.9828522410228,11.0390572825615
-1150,Grasp,12m,Frontal,14.6395694720354,17.079595585211,12.4237383530259,10.1880608035481,23.349312836304,15.2674295908927,16.6893853693478,5.30197428958881,9.15120154370919,10.0087112027657,6.53191289691246,9.12843970924703,13.5581228602559,26.5356185232562,8.89051450433365,11.7461210545061,8.15443023571803,12.0041628130438,10.9976000506247
-1148,Grasp,12m,Frontal,14.6180710956866,17.0987308101684,12.3784074750372,10.2362342535482,23.4107368333771,15.2303123113307,16.651851981689,5.31023802418586,9.15772036537619,10.0560014157834,6.47179877057851,9.12313280228494,13.5556342455302,26.5273041964632,8.87928206552548,11.7187584191934,8.14579323856115,12.0248960835063,10.9581793784555
-1146,Grasp,12m,Frontal,14.5974040980593,17.1173883963351,12.3323661100104,10.2820960088506,23.4705327332049,15.1924180489007,16.6140394455371,5.31686054073569,9.16321427663769,10.1031892206128,6.41298612476559,9.1179606403916,13.5536972725804,26.5218624403223,8.86898992853133,11.6931896076771,8.13676291424178,12.045207572662,10.9205782099171
-1144,Grasp,12m,Frontal,14.5779113582049,17.1354079290728,12.2857418398017,10.3263747325447,23.5281274420886,15.1536748156672,16.5764777923249,5.32182663511102,9.16767659552366,10.1505582209271,6.3555569551834,9.11284179794032,13.5529496310994,26.5193211357315,8.85967654900795,11.6730049349374,8.1274393272157,12.0646129025406,10.8847337609855
-1142,Grasp,12m,Frontal,14.5600224891941,17.1528308667082,12.2385869212083,10.3684237463676,23.5830348740172,15.1140645545687,16.5397563670098,5.32511722157412,9.17113179438573,10.1980265483233,6.29955936999006,9.10782151394296,13.5540757819312,26.5194730623458,8.85165227527485,11.6550374755078,8.11784417317185,12.083541836323,10.8507736300069
-1140,Grasp,12m,Frontal,14.5439054971419,17.1701047063178,12.1909325555536,10.4081818600296,23.6349571340307,15.0736379035601,16.506562715685,5.32675504798367,9.17385788616054,10.2453619804066,6.24501214438786,9.1028668083478,13.5552931369678,26.521713310197,8.84471252554907,11.6379879924771,8.10764843154182,12.1021643005714,10.8183055690845
-1138,Grasp,12m,Frontal,14.5296256880107,17.1874856374304,12.1428610527582,10.4457236743848,23.6840512537196,15.0324803102004,16.4772835493363,5.32677841586991,9.17574352534334,10.2924261178435,6.19192993099961,9.09788764998181,13.5563424711692,26.5256870510875,8.83858420598434,11.6214489649199,8.09653150931449,12.1202219371347,10.7871461512366
-1136,Grasp,12m,Frontal,14.5180148430943,17.2048714799488,12.0945502757419,10.481211093062,23.7302019400619,14.990796991955,16.4496436710698,5.32520279777602,9.17657850074588,10.3390960768417,6.14035844163063,9.09291770223895,13.557046727152,26.5307714549947,8.83325328766063,11.6052149560029,8.08436433633265,12.1376519358476,10.7571967262712
-1134,Grasp,12m,Frontal,14.5087235125829,17.2219245040708,12.0463201519123,10.5161397974691,23.7723421191479,14.9495996472027,16.4236219191285,5.32203021659237,9.17643277364511,10.3851539739585,6.09038497668378,9.08799380473593,13.5573880153222,26.5365201268231,8.828790366678,11.5892101205156,8.07111799711809,12.1549013592986,10.7284000675105
-1132,Grasp,12m,Frontal,14.5012778793922,17.2385671715097,11.9986111429498,10.549738171673,23.8099448696254,14.9082875942022,16.3992608977273,5.31726911875564,9.17534574084959,10.430379549058,6.04216064346901,9.0831227566058,13.5577768141629,26.5428934708308,8.82519291741139,11.5733576120498,8.05683216783384,12.1717933618999,10.7008008955875
-1130,Grasp,12m,Frontal,14.4957047415184,17.2548733753703,11.9517648789868,10.5815703520024,23.8427178038584,14.8669385213319,16.3766929517424,5.31090834989042,9.17314179670463,10.4746886508942,5.99591142012447,9.078382060122,13.5580068394805,26.54947858719,8.82233680110462,11.5574076173095,8.04161773140411,12.1878085987496,10.6746801655254
-1128,Grasp,12m,Frontal,14.4914012029541,17.2720742728615,11.9063705486527,10.611565787478,23.8706830822925,14.8259402852268,16.3562134539513,5.30295455322561,9.16967090599354,10.5178924222406,5.95190355687562,9.07389080819917,13.5576974121851,26.5560683709492,8.82003609097603,11.5418878036591,8.02573542985046,12.2026623488097,10.650733633939
-1126,Grasp,12m,Frontal,14.4879820190139,17.2893252102192,11.8633343461232,10.6397002639676,23.8939870679533,14.7857795927899,16.3383098870453,5.29345720611667,9.16486625793771,10.5597755756744,5.91032290695792,9.06967435876818,13.5565122639255,26.5635928077419,8.81806946708953,11.5274803165396,8.00941570167367,12.2162160216719,10.6291126290072
-1124,Grasp,12m,Frontal,14.4851813028233,17.3061927174529,11.8222487934195,10.6660385910344,23.9122064372483,14.7469146476693,16.3231155250939,5.2825137188468,9.15873622134103,10.6002759667774,5.87130172022149,9.06588595246083,13.5542375748681,26.5720362579329,8.81623279610932,11.5124653166167,7.99261162584487,12.2284268247448,10.6100844748423
-1122,Grasp,12m,Frontal,14.483291592783,17.3228355393244,11.7827950643589,10.6910597446692,23.9250388832499,14.7095873446893,16.3100990634011,5.27027299233343,9.15138860339489,10.6393688869048,5.83504492783082,9.06273636547101,13.5506586016184,26.5807901969995,8.81442155797594,11.496747729427,7.97549938021036,12.2399666361772,10.5930975761686
-1120,Grasp,12m,Frontal,14.4821894567148,17.3390804783688,11.7448023575254,10.7145272139708,23.9323517266687,14.6739673881606,16.29858937704,5.25704750765119,9.14284482947194,10.6770357141167,5.80165477020258,9.06073786718654,13.5456570450426,26.5903345566052,8.81277348267064,11.4802270991663,7.95832059269595,12.2501627211443,10.5778802823491
-1118,Grasp,12m,Frontal,14.4818952150464,17.3549425306406,11.7081947803872,10.7362160315865,23.9340623028123,14.6408624931819,16.2880124852296,5.24278597894239,9.13306258895036,10.7132655469675,5.77125343816291,9.06008011410965,13.5401391677352,26.6006684999884,8.81123608445451,11.4627692162278,7.94109503181055,12.2589215822295,10.5643831947318
-1116,Grasp,12m,Frontal,14.4825920772353,17.3702758742579,11.6728880153998,10.7561510101208,23.9301969603916,14.6100729493269,16.2779452711426,5.2273521682934,9.12208900430458,10.74803495384,5.74410230500532,9.06024387904766,13.5331654609049,26.6116724011661,8.80957883169605,11.4442737726825,7.92370627409125,12.2666163987566,10.5527181829987
-1114,Grasp,12m,Frontal,14.4842419044088,17.3849588245674,11.6385779584577,10.7742674942442,23.9209313288418,14.5806743862208,16.26808111611,5.21082455200935,9.10999895019784,10.7813451875115,5.72045303335869,9.06117576024928,13.5247491562699,26.6236893521667,8.80769793033017,11.42466099036,7.90607681300561,12.2736632024459,10.5430700443403
-1112,Grasp,12m,Frontal,14.4870126831064,17.3993431106728,11.604815917711,10.7904976147808,23.9067878934247,14.5523289925011,16.2582084518225,5.19333772575142,9.09692690072274,10.8133688576789,5.70041235062097,9.06301183881508,13.5150592469798,26.6369413587539,8.80553649544,11.4039974153719,7.88824286951831,12.2795470139777,10.5356207719822
-1110,Grasp,12m,Frontal,14.4899980427224,17.412434718474,11.5711874153743,10.8048737678391,23.888196893326,14.5249144152467,16.2481816561414,5.17506721241196,9.08324444578695,10.8440912369766,5.68397944363988,9.0664217912397,13.5041962212678,26.6514402927488,8.80303404175766,11.3830237724801,7.87030816799207,12.2837906531187,10.5305100715779
-1108,Grasp,12m,Frontal,14.4932741641493,17.4240881205253,11.5373685663186,10.8176810386509,23.8648195170543,14.4986012885813,16.2379006041893,5.15620146341844,9.06972367342379,10.8734256555436,5.67100174388288,9.07097851965117,13.4921274234653,26.6666784860061,8.80013406297009,11.3616198514738,7.85242850813976,12.2864487560331,10.5283463013829
-1106,Grasp,12m,Frontal,14.4970162382449,17.4342875973125,11.5031240405582,10.8288694465627,23.8363312692623,14.4731038435368,16.2272613085778,5.1369247969977,9.05604111711244,10.9018060213186,5.66125001475641,9.076462891241,13.4795912520734,26.6825587764529,8.79685217740956,11.3396895346493,7.83481636040495,12.2878480838796,10.5294459105788
-1104,Grasp,12m,Frontal,14.5014042818739,17.4429165873047,11.468308750587,10.8382390240602,23.8026769686929,14.4482688440907,16.216122440732,5.1174474012998,9.04208468928968,10.9289209243378,5.65479220764995,9.08270363175677,13.4661358096917,26.6993312135364,8.79330745456696,11.3172402262871,7.81762141751401,12.2880043426387,10.5327679613131
-1102,Grasp,12m,Frontal,14.5064368869473,17.4498887904543,11.4328574806454,10.8458124729782,23.7643033850741,14.4241239909205,16.2043146020135,5.09778398861569,9.02784792257286,10.9548989203981,5.65219755832817,9.08935212280622,13.4512486870374,26.7173181963142,8.78952748559537,11.2936649300079,7.80076632369839,12.2870244203768,10.5383038333952
-1100,Grasp,12m,Frontal,14.512297596244,17.4551548142995,11.3967799909698,10.8517014279833,23.7219415290702,14.4007314689814,16.1916837009331,5.07782895059941,9.01341226037612,10.9795549734836,5.65684755740025,9.09631232611066,13.4349702074487,26.7369771623803,8.78557129231584,11.2689143379651,7.78420389393677,12.2847775009451,10.5468655927954
-1098,Grasp,12m,Frontal,14.5192803913039,17.4586805429117,11.3601701287643,10.8560819170217,23.6751287538018,14.3779731146051,16.1781356758646,5.05754947325706,8.99878701061131,11.0026969521231,5.66478214738727,9.10340916757175,13.4173836498926,26.7585853156103,8.78105869876195,11.2431966292838,7.76782418595821,12.2812350248036,10.5593348254874
-1096,Grasp,12m,Frontal,14.5266022897889,17.4608098109777,11.3232323517214,10.8590797117585,23.6241213721242,14.3555983513742,16.1636497044653,5.03696555548341,8.98383058302026,11.0243374966807,5.6746497372702,9.11051788079109,13.3986439211332,26.7823200907976,8.77590608636523,11.2159782309111,7.75152221613294,12.2765797820196,10.5755400847602
-1094,Grasp,12m,Frontal,14.5333551651703,17.4617894252379,11.2863962623759,10.860733422591,23.5701780073854,14.3334814257668,16.148278935482,5.01612614533725,8.96834555105884,11.0444174659547,5.68616705725426,9.11753695302259,13.3787729910911,26.8071882352935,8.77012075844526,11.1872446624177,7.73528705883661,12.2711452683786,10.5942400455759
-1092,Grasp,12m,Frontal,14.5390592211319,17.4613955420771,11.2505636257757,10.8610872150428,23.513712148514,14.311668793121,16.1321511109445,4.9951624656872,8.95218515369971,11.063245608867,5.69929436580368,9.12446875390238,13.3577483655171,26.8326664143944,8.76376884999891,11.1570181574175,7.71910872636155,12.264922989419,10.6151144133841
-1090,Grasp,12m,Frontal,14.5433233952902,17.4597181780952,11.2174852562907,10.8603088301466,23.4551390980718,14.2903549332279,16.1154611541472,4.97425829127602,8.93528697356622,11.081096401432,5.71367487613645,9.13131874336233,13.335634437705,26.8588949160122,8.75691514736404,11.1253509448307,7.70291069948504,12.2581320249615,10.638082832879
-1088,Grasp,12m,Frontal,14.5457912833372,17.4569029815168,11.1862360748125,10.8588784689369,23.3953552505673,14.2695043382695,16.0984682452765,4.95348991069182,8.91767447666225,11.0976147535024,5.72916050207717,9.13797927544357,13.3128316578304,26.8855486034291,8.74962903475596,11.092328970124,7.6865741227178,12.2508649625686,10.6640422146257
-1086,Grasp,12m,Frontal,14.5461801005736,17.4535245552499,11.1556726163967,10.85668336962,23.3344551375689,14.2488491509392,16.0814500162551,4.93276368485225,8.89946652428978,11.112813440136,5.74539664368533,9.14431964125041,13.2895164842425,26.9119802035109,8.74198991543625,11.0580610806699,7.67011231152299,12.2428030692962,10.6922873122224
-1084,Grasp,12m,Frontal,14.5443135839151,17.4493609992765,11.1253251927148,10.8535371280043,23.272342026786,14.2282366405083,16.0646376568366,4.91199450389179,8.88093411994451,11.1265855382282,5.76191126742032,9.1505195558508,13.2650354720095,26.9378856120987,8.73405276780182,11.0227063634571,7.65361030059843,12.2339929277571,10.7224852693061
-1082,Grasp,12m,Frontal,14.5400255404942,17.4446327279906,11.094889887267,10.8494286291572,23.2095251153418,14.2076753532666,16.0480841249625,4.89107098851736,8.86243682687713,11.1387920296163,5.77859702129044,9.15691285206103,13.2396511454359,26.963667661427,8.7259352058194,10.9870938191646,7.63714401976309,12.2247944318639,10.7541474206724
-1080,Grasp,12m,Frontal,14.5332499454294,17.4394093275805,11.0642355578616,10.8442729648665,23.1459135832324,14.1873153690785,16.0316293112298,4.86989269539839,8.84402723239881,11.1493542578936,5.79540657866494,9.16291016879786,13.2137150180978,26.9880403552248,8.71761690897361,10.9511093226234,7.62084849098575,12.2151583590528,10.7871166571744
-1078,Grasp,12m,Frontal,14.5244832148538,17.4336517794808,11.0333425230036,10.8379998272924,23.0810515094351,14.1672884402559,16.0150437833049,4.84840272986095,8.82560752282449,11.1582316485702,5.81232765575627,9.16842115620145,13.1870234066351,27.0106818915784,8.70898406440577,10.9146971436784,7.60497825431646,12.2056209860935,10.8214172647899
-1076,Grasp,12m,Frontal,14.5146049832642,17.4273451930086,11.0022253073814,10.8305517698952,23.0153603987644,14.1476079545794,15.9981377709152,4.82657306616421,8.80748596451567,11.1653811275312,5.82935928163165,9.17346179879165,13.1597055386587,27.0314046520906,8.70003367807641,10.8781444956714,7.58985450920864,12.1960842758011,10.8569534891084
-1074,Grasp,12m,Frontal,14.5024292279432,17.4205709296628,10.9708738702767,10.8218489439676,22.9500775160472,14.1282661878367,15.9807815763129,4.80440970286378,8.78932249067748,11.1707606496719,5.84649871713241,9.1781033443337,13.1320868767946,27.0501481273412,8.6913157565088,10.8418177524556,7.57539825840659,12.1859225689685,10.893507025169
-1072,Grasp,12m,Frontal,14.4879384535996,17.4133906383402,10.9392495454614,10.8118030744403,22.8857001832919,14.1092200144095,15.9628753257927,4.78193344934418,8.77102297692081,11.1743695596349,5.86373547471439,9.18249634981277,13.1046474424988,27.0669700388607,8.68260512378738,10.8061311629076,7.56118739872514,12.1750796088735,10.9309214436911
-1070,Grasp,12m,Frontal,14.4711096888849,17.4057864974066,10.9073645904108,10.8003514713139,22.8198342782066,14.0903488503175,15.9443272492107,4.75914274902384,8.75270127459386,11.1763031024413,5.88106750443483,9.18633609085662,13.0774019742508,27.0832448544944,8.67376835041303,10.7713879509474,7.54740221703294,12.1636571262881,10.969152405014
-1068,Grasp,12m,Frontal,14.4517772059171,17.3983639888038,10.8752469345616,10.7874671599729,22.752388460521,14.0715058900035,15.925037915274,4.73602603435866,8.73444396366731,11.1765072361985,5.8985394818862,9.18949751690336,13.049944780045,27.0990934332914,8.6649381684033,10.7376786576929,7.5344098363739,12.1516367465787,11.0085535845329
-1066,Grasp,12m,Frontal,14.4304313747849,17.3913133869333,10.8428186996089,10.7731531294324,22.6835086429732,14.0525976982734,15.9048890238155,4.7125932362982,8.7163175607265,11.1749116945325,5.91628738116339,9.19190442402486,13.0222579468765,27.113737545522,8.65629335774923,10.7050840863653,7.52211119813535,12.1390476431081,11.0485550177214
-1064,Grasp,12m,Frontal,14.4070285744421,17.3844384463033,10.8100675168002,10.7574435879254,22.6135024694819,14.0337104075463,15.8837862037894,4.68892055594216,8.69847919968877,11.1715578828498,5.93450403794301,9.19354709181042,12.9945007528863,27.1281055621253,8.64805877726725,10.6738617331899,7.50960392159529,12.1263157488562,11.0889641456554
-1062,Grasp,12m,Frontal,14.3812762482025,17.3776874406527,10.7771280357841,10.7403961918487,22.5426778886142,14.015270453857,15.8616971003369,4.66518307721438,8.68122125283489,11.1664763793358,5.95325339202783,9.19444455840135,12.9668276133284,27.1432703434113,8.6404862152458,10.6443456564193,7.49646300950605,12.1132578185103,11.1297469924331
-1060,Grasp,12m,Frontal,14.3536305812262,17.3703683379292,10.7442491702265,10.7221053047974,22.4712846558575,13.9972759009961,15.8386751312012,4.64132448143494,8.6646557696183,11.1596414754296,5.97234432609369,9.19465224416838,12.9393142971658,27.1587131658538,8.63389980525045,10.6168277364368,7.48255252329648,12.0996016573274,11.1709823791951
-1058,Grasp,12m,Frontal,14.3242767519738,17.3622708635071,10.7117318579764,10.7027036498454,22.3993972013391,13.9795696128665,15.8147202054235,4.61728805842519,8.64903162510784,11.1510208462744,5.99141371055153,9.19428845362583,12.9120664827878,27.1753455999505,8.62847778513827,10.5912547820921,7.46782573634115,12.085252590739,11.2135879968757
-1056,Grasp,12m,Frontal,14.2925965151794,17.3534681600733,10.6799023865768,10.682370828654,22.3271703555322,13.9621051651207,15.789648090191,4.59312996246872,8.63504139922014,11.1406160852668,6.0102040887912,9.1934173125228,12.8854604649988,27.1929205261304,8.62419742526226,10.5675587480907,7.45232381481723,12.0702082809072,11.2564669404526
-1054,Grasp,12m,Frontal,14.2587053544851,17.3442141672589,10.6489932896219,10.661315536467,22.2557638363102,13.9448251731498,15.763206950786,4.56892640019727,8.62192853929808,11.1284560338257,6.02874831871725,9.19198033620583,12.8591478324575,27.2109083163893,8.62106055396023,10.5454961013598,7.43617668283782,12.0545357985963,11.2992948177485
-1052,Grasp,12m,Frontal,14.2226150647481,17.3347728150664,10.6190557559799,10.6397404301594,22.1850205390904,13.9277899723034,15.7352126798418,4.54471292082113,8.60972166851031,11.1145984035631,6.04735441275523,9.19029019171834,12.8327424091367,27.2295487695559,8.61894886905822,10.524920912939,7.41941865839887,12.0383659183547,11.341895507963
-1050,Grasp,12m,Frontal,14.1843664252561,17.3253205040757,10.5903503791535,10.6177954761794,22.1177452810883,13.9112912253524,15.7055498715643,4.52057807672522,8.59848585191417,11.0991378533129,6.06574870972446,9.18836562937183,12.8060609717269,27.2492954917411,8.61786605515662,10.5088723901275,7.40190728017718,12.0219102100527,11.3841826572503
-1048,Grasp,12m,Frontal,14.1444045857349,17.3157908137468,10.5623807062793,10.5955588449386,22.0525130645814,13.8951720877164,15.6741569704332,4.49661030319844,8.58823531713881,11.0821616066177,6.08404544695058,9.1859561402605,12.7795171245586,27.2698706202798,8.61788954119894,10.4945966906678,7.38353467062683,12.0053623103435,11.4261300847311
-1046,Grasp,12m,Frontal,14.1024640823043,17.3061105737587,10.5353366701761,10.5730503840384,21.9894893914722,13.8794472744536,15.6410176346172,4.47278999194568,8.57906603037652,11.0636801403457,6.10224803190281,9.18289041134575,12.7529056701378,27.2909277084711,8.61890809471611,10.4811288727451,7.36426996502811,11.9884765378749,11.4674812557322
-1044,Grasp,12m,Frontal,14.0582918672169,17.2962472815715,10.5097603343294,10.5503030608296,21.9296579850804,13.8644013051416,15.6061615132439,4.44920800805941,8.57111053252682,11.0437090378593,6.11998595472604,9.17909329704825,12.7259084224269,27.3119976640908,8.62078291600984,10.4688474405702,7.34414723146691,11.9710045766547,11.5077982659307
-1042,Grasp,12m,Frontal,14.0119062533157,17.2862169923621,10.4859134852478,10.5274289356862,21.8725938063913,13.8498599699773,15.5696675620741,4.42594289454702,8.56478431287342,11.0222716913727,6.13710661805139,9.17465281216716,12.698612236524,27.3327600804281,8.62351259441888,10.4575706657553,7.32326646587362,11.9527684410446,11.5467068764352
-1040,Grasp,12m,Frontal,13.9634201057682,17.2752818314789,10.4636851019533,10.5046686633134,21.817509561289,13.8353980921141,15.5316771753403,4.40328692221096,8.56158396799724,10.9993966649767,6.15355816784898,9.1695431155169,12.6709058876859,27.3535967739725,8.6272303685934,10.4463487676904,7.30176357758168,11.9341648779159,11.583960755173
-1038,Grasp,12m,Frontal,13.9131183976529,17.2630433329316,10.4430879795706,10.482363061432,21.7650354561111,13.8207204300884,15.4923767909969,4.38107956052715,8.56157889354598,10.9751263005139,6.16931806811794,9.16390126454118,12.6426948470863,27.3746775388022,8.63224296486676,10.4344744386002,7.27971760361665,11.9152046757589,11.6194572690468
-1036,Grasp,12m,Frontal,13.8612720737103,17.2495297506326,10.4245504124983,10.4608259791052,21.7139625063684,13.8056611569694,15.4519299975811,4.35926900819215,8.5634584292533,10.9495268682394,6.18437986638683,9.15784429219237,12.6140335115853,27.3958941445431,8.63870723404761,10.4215435800653,7.25731356396787,11.8952739274524,11.6532845256225
-1034,Grasp,12m,Frontal,13.8079773462308,17.234882150965,10.4075303483005,10.4403765642323,21.6640408857311,13.7901485234024,15.4103805000029,4.33793651848256,8.56694709881894,10.9226920804389,6.19875995661317,9.15110964717694,12.5851392332991,27.4170095376988,8.64623513385222,10.4073043227653,7.2349131744602,11.8742671004117,11.6852165655442
-1032,Grasp,12m,Frontal,13.7537458272908,17.2193273298964,10.3914816507782,10.4212401198537,21.6153507425492,13.7741982283638,15.3676564978832,4.31723095357793,8.5716763204411,10.8947604368727,6.2125026373378,9.14351126552505,12.5563026977203,27.4383214133725,8.65465920701489,10.39160104249,7.21234496985515,11.8522111860935,11.7149387572634
-1030,Grasp,12m,Frontal,13.6993280115111,17.2037463716102,10.3761333010596,10.4035711338562,21.5681484728996,13.7579014481446,15.3236759607627,4.2974903200351,8.5776278854356,10.866025638579,6.22568982175346,9.13494236971406,12.5275679406221,27.4600688841518,8.66407947472291,10.3743646574851,7.18921760513836,11.8292371118029,11.7423703013496
-1028,Grasp,12m,Frontal,13.6453714330822,17.1881337142479,10.3612633997654,10.3872635451694,21.5230635561273,13.7413567591979,15.2783943172903,4.2789321886585,8.58500277327661,10.8368837528699,6.23846622739143,9.1253346812444,12.499056381678,27.4820341801545,8.67466520047522,10.3555875731527,7.16551494175629,11.8053838639635,11.7674330847968
-1026,Grasp,12m,Frontal,13.5924064113619,17.1718390229907,10.3466472653714,10.3720208046783,21.4806755204251,13.7246648343889,15.2318174793812,4.2613515744141,8.5942113415931,10.8071854367396,6.25124852157402,9.11467694666792,12.4711467147316,27.5037456747846,8.68639786120202,10.335275992046,7.14135042203685,11.7807512370282,11.7900130009849
-1024,Grasp,12m,Frontal,13.5410913120196,17.1549539716037,10.3319864384726,10.3578923020844,21.4411604662686,13.7079478639285,15.1840023887034,4.24477275490062,8.60532593392125,10.7767881826956,6.26457965143167,9.10294727758639,12.4441551049374,27.5248115359513,8.69897325089659,10.3133954939659,7.11690672074361,11.7560772857237,11.8100863584118
-1022,Grasp,12m,Frontal,13.490856392918,17.1377195718555,10.3168858932778,10.3447369449223,21.4047834374761,13.6913490360771,15.13505537147,4.2292838192888,8.61766508729529,10.745665356045,6.27812521576882,9.09005094320089,12.4180957743225,27.5450479203935,8.71248253534991,10.28984887794,7.09235241623693,11.7307398225533,11.8279128192732
-1020,Grasp,12m,Frontal,13.441961049351,17.1205326200516,10.301022932917,10.3325800609589,21.3718599525347,13.6750442067964,15.0851435307722,4.21499555712806,8.63081004644003,10.7138279319815,6.29190749749328,9.07590949974424,12.3930277198284,27.5652239949373,8.72660735078808,10.2644982192058,7.06776152233981,11.7048097668166,11.8439851833645
-1018,Grasp,12m,Frontal,13.3944234358805,17.1034342970347,10.2841656929908,10.3216120348507,21.3426871780279,13.6590618053736,15.03449702111,4.20207452751607,8.64457933157057,10.6813403855985,6.30632558161745,9.06048334050264,12.369083371497,27.5845536165907,8.74133225526394,10.2372045057138,7.04310744473899,11.6783425138658,11.8580533195192
-1016,Grasp,12m,Frontal,13.3481353902824,17.0864717673206,10.2661374319726,10.3124391831442,21.3181947650554,13.6431663789751,14.9833790313657,4.19062589002079,8.65890584761054,10.6483803465909,6.32212676170923,9.04377546680605,12.3464549940616,27.6026060821063,8.75666430250712,10.2078774200381,7.01872336892018,11.6513123881658,11.8700673964291
-1014,Grasp,12m,Frontal,13.3032276611849,17.0698139097975,10.2467917377444,10.3050231444187,21.3001189822993,13.6270437714611,14.931992879383,4.18053673434446,8.67383072782722,10.6151529218579,6.33994834739692,9.02584079108423,12.3258464536042,27.6193122576942,8.77259678401338,10.1765247817515,6.9945438721609,11.6236829956219,11.8800966474348
-1012,Grasp,12m,Frontal,13.2600280658301,17.0535879257599,10.2260184374564,10.2992755104204,21.2890574555467,13.610482746547,14.8804706246737,4.17154826176116,8.68925600231676,10.5817696299497,6.35927184967257,9.00674647153919,12.3070389728932,27.6346907086664,8.78894833587107,10.1436825902722,6.96992381685989,11.5955289753423,11.8881492691882
-1010,Grasp,12m,Frontal,13.2183338699519,17.0377908669313,10.2038485248499,10.2955716188305,21.2851319947843,13.5933827125312,14.8289238649289,4.16377703087969,8.70501536902083,10.5483216066498,6.3795457834655,8.98655113141391,12.2901908501735,27.6488362210071,8.80550621400653,10.1097383352045,6.94478618258175,11.5668815161135,11.8942571450218
-1008,Grasp,12m,Frontal,13.1782811016171,17.0225403088307,10.180683557968,10.2942330068645,21.2893142073637,13.5757371704567,14.7775154636636,4.15738892589274,8.72104162918916,10.5147172065867,6.40082825991877,8.96543202444876,12.2755054853728,27.6619518733648,8.82213626507575,10.0740268315192,6.91915216439391,11.537720835468,11.8985120558369
-1006,Grasp,12m,Frontal,13.140266507692,17.0081088503432,10.1559376477139,10.2952798923765,21.299916439185,13.5576285826638,14.726519411194,4.15220521792014,8.73731471816517,10.4808696427924,6.42287911892447,8.94364465477793,12.2631561149581,27.6743657112033,8.83882641405933,10.0365349806407,6.89310413451996,11.5080748306167,11.9010405815704
-1004,Grasp,12m,Frontal,13.1046888991676,16.9949118122898,10.1294468457076,10.2985978550389,21.31690302953,13.5391950438615,14.6763353720137,4.14826424717212,8.75383030327252,10.4467684678387,6.44547956338572,8.92145359722123,12.2533300327041,27.6864896207974,8.85565208432767,9.99739070257281,6.86680830489704,11.4779699435174,11.9020066912636
-1002,Grasp,12m,Frontal,13.0715676622207,16.9836290604461,10.1012177700516,10.3043902002333,21.3410149012528,13.5205982596157,14.6272385008135,4.145597114121,8.77058580441613,10.4124330776436,6.46868808020731,8.89910965613155,12.2462747929385,27.6984409217276,8.87272164643397,9.95676477208625,6.8406027311972,11.4479546748021,11.9016255258985
-1000,Grasp,12m,Frontal,13.0409010201317,16.9743393037961,10.0713692399298,10.3128559780151,21.3737574974717,13.5032053302403,14.579132811886,4.14423035728245,8.78758007529109,10.3779229194333,6.49260564275841,8.8768042155555,12.2423362734422,27.7101850036325,8.89009827183072,9.91486201933877,6.81470697809676,11.4180160551317,11.900187911748
-998,Grasp,12m,Frontal,13.0127639129821,16.9667791958109,10.0400475616622,10.3237786066742,21.4143661066876,13.4863893685047,14.5318553169551,4.14422462704058,8.8048170514585,10.3433341165644,6.51711673296073,8.85437548306195,12.2419261298654,27.7217042040407,8.90782303636849,9.87191654491624,6.78928595321763,11.3883061984723,11.8980783641609
-996,Grasp,12m,Frontal,12.9875020153456,16.9617713929418,10.0072615057442,10.3370813260475,21.4631339982078,13.4698272011808,14.4853712275499,4.14578487675721,8.82234289670053,10.3088008254011,6.54184138303548,8.83194311759073,12.2453180294238,27.7329875107804,8.92595234383916,9.82819312900646,6.76475797936364,11.3594998347048,11.8957497369638
-994,Grasp,12m,Frontal,12.9657599389821,16.9584489172805,9.97305090222357,10.3528097600962,21.5227672552553,13.453525506627,14.4397369602335,4.14868874429779,8.84033524306226,10.2743940174113,6.56655196717323,8.80966118091133,12.2526920314671,27.7438742061602,8.94453739663111,9.7839870873405,6.74149282812038,11.3309319324857,11.8935400877854
-992,Grasp,12m,Frontal,12.9476693137258,16.9562671623325,9.93747617667052,10.3710052934973,21.5934197660645,13.4375054196636,14.3950667434232,4.1528143339869,8.85897809483262,10.2401140170756,6.59115653029195,8.78752151765034,12.2643958342632,27.7548357401274,8.96358576525261,9.74137866920283,6.71939549313703,11.3027657566486,11.8916539107417
-990,Grasp,12m,Frontal,12.9336919579478,16.9550267940084,9.90048692223092,10.3917003441194,21.6721965990461,13.4222000057345,14.3515087627153,4.15824948824311,8.87812809381983,10.2060251916272,6.61563331960844,8.76560109004202,12.2807781162153,27.7662699633304,8.98308499869088,9.70176314794824,6.69849417683484,11.2753148528801,11.8904850739883
-988,Grasp,12m,Frontal,12.9236886570636,16.9546110403103,9.86196022868368,10.4149418305175,21.7580418833219,13.4081623644829,14.3092603303574,4.16495055274145,8.89780196376807,10.1722272792357,6.6400003922218,8.74400224155281,12.302314641534,27.7775522444974,9.00303223658551,9.66299223944368,6.67898598303353,11.249043381018,11.8900662249832
-986,Grasp,12m,Frontal,12.9171688686455,16.9549564371488,9.82178406108893,10.4409766657415,21.8511159438886,13.3950723919499,14.2685834830513,4.17287840381278,8.91838730320814,10.1386691540646,6.66426855353121,8.72285217719458,12.3297935149069,27.7884929614737,9.02342731684948,9.62481408235758,6.66094660204952,11.2241731732075,11.8903570762853
-984,Grasp,12m,Frontal,12.9139579940285,16.9560556149472,9.78019595656657,10.4709869511674,21.9508644376872,13.3828190576734,14.2297674282936,4.18200105271844,8.93996179767092,10.1053336017639,6.68843125966582,8.70234473216029,12.3640731054947,27.799038050941,9.04428001134552,9.58734750372295,6.64487642841926,11.2007987602359,11.8915458855614
-982,Grasp,12m,Frontal,12.9142724677501,16.9579390266323,9.73785063820991,10.5039885485599,22.0579227520889,13.371625923457,14.1929209262018,4.1920952104765,8.96238569688454,10.0722641904342,6.71248878173356,8.68290170002844,12.403137147876,27.8092233401771,9.06561120989697,9.55061957144142,6.63005085468107,11.1795206059134,11.8938109528023
-980,Grasp,12m,Frontal,12.9178466357051,16.9605061641728,9.69399056814385,10.5405319562169,22.1721399532799,13.3634369844403,14.1579105478147,4.20299489214796,8.98588531471714,10.0395331701182,6.73646952373469,8.66494702326008,12.4464443410617,27.8192293160986,9.087450967723,9.51468325905446,6.61640690292943,11.1607066545056,11.8972969416955
-978,Grasp,12m,Frontal,12.9242586963032,16.9636635786915,9.64864665521915,10.5793530515156,22.2929237754054,13.3560833326244,14.1245800427661,4.21464058230945,9.01018170190945,10.007221531626,6.76043195282573,8.64806360934211,12.4937915042187,27.8293160524068,9.10983604191482,9.4799045335803,6.60396535677755,11.1438202795566,11.9028073594869
-976,Grasp,12m,Frontal,12.933458073282,16.9674926377272,9.60204904187775,10.6199776272821,22.4186981402581,13.3493740992006,14.0928866889278,4.22706379938083,9.03465601354435,9.97543074719735,6.78446429059406,8.63198040924653,12.5448903634676,27.8394305915512,9.13283533568076,9.44704487555425,6.59277148087169,11.1289665290768,11.9091830642567
-974,Grasp,12m,Frontal,12.9462183151762,16.973057111775,9.55431836274729,10.662147370192,22.5493268238639,13.3432073491699,14.0628728935665,4.24018818369914,9.05907468356554,9.9442856987581,6.80867849998463,8.61667567057179,12.5993749545441,27.849523042828,9.15665181834797,9.41538883774949,6.58291568565774,11.1164032764735,11.9163239569904
-972,Grasp,12m,Frontal,12.9622655002272,16.9804876740467,9.50498782568386,10.7056467307218,22.6828707436038,13.3376379450168,14.0346141781265,4.25383966575777,9.08327343411704,9.91391265517192,6.8332174112159,8.60212375576952,12.6568945120737,27.8596596054876,9.18124989062582,9.38417800633053,6.57500508064856,11.1060220550482,11.9242038247998
-970,Grasp,12m,Frontal,12.9810176680442,16.9892438023276,9.45368300954234,10.7502455578925,22.8186100084451,13.3329089498936,14.0082105405269,4.26791103834055,9.10715516980887,9.88456495880472,6.85826977847628,8.58837260143094,12.7176820953966,27.8701310668487,9.20684756003621,9.35321043771079,6.56849816123656,11.0978246392537,11.9332693603514
-968,Grasp,12m,Frontal,13.0021618799566,16.9991336875183,9.40020081481133,10.7956597860734,22.9561451928412,13.3294936288895,13.9838235237268,4.28241025788949,9.13069641985485,9.85640512710315,6.88414027721419,8.57545455566459,12.7820662058267,27.881726911864,9.23352504888626,9.32244873318799,6.56344054751923,11.0920424531276,11.9432183777214
-966,Grasp,12m,Frontal,13.0252467202367,17.0100875193954,9.34447442140548,10.8417290200822,23.0953195685695,13.3273621011804,13.9617441478397,4.29759442471161,9.15393059972132,9.82915777830164,6.91147051776403,8.56358874224258,12.848971715317,27.8954330993303,9.2610048269896,9.29197653653157,6.55995664588669,11.0888521176497,11.9540168831377
-964,Grasp,12m,Frontal,13.0498827238495,17.021706124412,9.28654035613944,10.889725905991,23.2361175734289,13.3265871762488,13.9425695852404,4.31350228380346,9.17681809501958,9.80286249796338,6.94080889792377,8.55283502499601,12.9184662315981,27.9106439979151,9.28918408555069,9.26220058070683,6.558220596391,11.0887464117685,11.9658357112419
-962,Grasp,12m,Frontal,13.0761563682237,17.0346468260364,9.22652904839319,10.9387969005216,23.3786119375047,13.3267947763006,13.9277820649888,4.32982345144421,9.19921021005924,9.77761412427578,6.97219890639272,8.54343761070724,12.9903589294877,27.9263317489637,9.31800236778403,9.23372609906634,6.55835085439601,11.0910300904542,11.9785235149331
-960,Grasp,12m,Frontal,13.1043047647316,17.0492388494114,9.16471346497515,10.9876080045904,23.5227940194813,13.3278924757402,13.9179928825481,4.34642840666159,9.22097701112848,9.7535061836567,7.00517271569938,8.535591017255,13.0634143463828,27.9417180238373,9.34738456703562,9.20608734936048,6.56014082162383,11.0955096067283,11.9919474363589
-958,Grasp,12m,Frontal,13.1337827593476,17.0646390893914,9.10169328744069,11.0358530904508,23.6684658235056,13.3299170113135,13.9128680446178,4.36318933344127,9.24204748135944,9.73058622881122,7.03919217988427,8.52898679734257,13.1370166056348,27.9564515310849,9.37751774179143,9.17884720895258,6.56358325471363,11.1020293165498,12.0067790187648
-956,Grasp,12m,Frontal,13.1644691874992,17.0803056454113,9.03801991219726,11.0830398790087,23.8138098251276,13.334371135179,13.9130080776818,4.37999557214836,9.26240043794099,9.70926004949927,7.07417665968697,8.52392143566987,13.2108073105588,27.9704262927688,9.40823304712822,9.15194631775185,6.56879371164516,11.1105507502745,12.0237228602789
-954,Grasp,12m,Frontal,13.1958917362322,17.0964399577921,8.97317253613519,11.1286395700517,23.958264427579,13.3407070042543,13.9180062050618,4.39681594391382,9.28204725706758,9.68941594859165,7.11052144414735,8.52053090669712,13.2845501200932,27.9835459255316,9.43908178526034,9.12545914534384,6.57592200589336,11.1210957933492,12.042751503388
-952,Grasp,12m,Frontal,13.2277398442439,17.114067657566,8.90693946975517,11.1723158426113,24.1016523669916,13.3479260584985,13.9274473816204,4.41366153606402,9.30099531992682,9.67110030252519,7.14937094117659,8.51870372900706,13.3580990266823,27.9955161824055,9.46994910987931,9.09954539369007,6.58483615605419,11.1334398259303,12.0634430899751
-950,Grasp,12m,Frontal,13.260189684129,17.1321132231291,8.83956247191309,11.2138019311421,24.2440595808071,13.3561208312561,13.941008450192,4.43052044927385,9.31920188105651,9.65451991211429,7.19046034091176,8.51861897920228,13.4314046680601,28.0060720746129,9.50106725751933,9.07441787392357,6.59554137446239,11.147623150449,12.0854275936919
-948,Grasp,12m,Frontal,13.2932494161999,17.1503814784331,8.77183742904274,11.2528781407529,24.3846012571827,13.3660676552499,13.9585425385165,4.44739659250919,9.33658769188277,9.6397168669263,7.23220495225074,8.51972180640351,13.5046359494688,28.0149906542962,9.53201619744716,9.05024767222072,6.60818487138818,11.163544324186,12.1082081186819
-946,Grasp,12m,Frontal,13.3272180091834,17.1689942168959,8.70339029882987,11.2894146017983,24.522996507767,13.3775997512442,13.9802911646604,4.4642915233152,9.35309414764138,9.62669057216475,7.27454706987748,8.52202787171977,13.5777863064353,28.0221549700399,9.56264519449949,9.02707714800402,6.62268438853964,11.1809005274441,12.1313383766702
-944,Grasp,12m,Frontal,13.3613836964539,17.1880011635891,8.6342411260596,11.3237242097219,24.6590511820659,13.3904656894071,14.0062532271709,4.48120824826262,9.36872540518121,9.61557384057806,7.31747068055948,8.52560074960363,13.6505948408123,28.0274628089022,9.59285781211885,9.00489235500649,6.63873323073402,11.1995891430954,12.1544189420994
-942,Grasp,12m,Frontal,13.3953467837992,17.2071209448406,8.56455269944051,11.3561348875372,24.7926922080075,13.404789486868,14.035761437536,4.49816557830986,9.3835683100845,9.60643621703407,7.3609574686013,8.53028853427974,13.7227092242644,28.0306908119341,9.62261695671699,8.98371669352262,6.6560933331505,11.219466558074,12.1772144012166
-940,Grasp,12m,Frontal,13.4287427495546,17.2264089113112,8.49430044714991,11.3855353580636,24.924261622656,13.4207540254952,14.0684038314016,4.51521317423145,9.39774773022776,9.59914714064076,7.40584208745835,8.53631772138606,13.7938291238626,28.0315289994379,9.65192317642167,8.96364018289036,6.67467826992903,11.2404034897361,12.1995955727623
-938,Grasp,12m,Frontal,13.4613377168506,17.2460839444969,8.42341090907697,11.4114222324073,25.0537031996972,13.4385988791937,14.1040338524438,4.5324317035975,9.41123462638153,9.59354816468495,7.45484031789825,8.54337711461747,13.8636654074076,28.0298454584448,9.68094956077028,8.94578506862977,6.69418934286804,11.2622781145544,12.2215206560717
-936,Grasp,12m,Frontal,13.4930937334054,17.2663549491282,8.35194362092129,11.4335325600035,25.1802920830863,13.4585537645506,14.142622784152,4.54987914452233,9.42388234826051,9.58952809761025,7.50451635767378,8.55128874234289,13.9319127181198,28.0256604529214,9.71014862838337,8.93034769265331,6.71447788312506,11.2853945727086,12.2430345345835
-934,Grasp,12m,Frontal,13.5241569810514,17.287053920085,8.28024503669655,11.4516491500076,25.3038040501915,13.4807419402911,14.1842248062197,4.56721857632389,9.43561010285683,9.5870270454273,7.55433732437931,8.56024314459366,13.9983079808402,28.01887486931,9.73863318749367,8.91638352433668,6.73544403839513,11.309412892106,12.2643267608516
-932,Grasp,12m,Frontal,13.5543662082727,17.3079695167019,8.20834415029685,11.4655928782427,25.4241812933956,13.5051613405388,14.2290070243768,4.58433014905098,9.44647673826944,9.5860518489579,7.60408170786328,8.57050368663427,14.0626449777064,28.0096043737663,9.76625083581498,8.90397236058679,6.7569893655088,11.3338835904162,12.2860693677008
-930,Grasp,12m,Frontal,13.5835285436074,17.3290863855551,8.13619907645049,11.4752180870104,25.5413292055154,13.5317046204529,14.278796691908,4.60117125178904,9.45686664564894,9.58695269373464,7.65350179335571,8.58146874323375,14.1247398135492,27.9982304280538,9.79296019774661,8.89316321347547,6.77901339754721,11.358818113358,12.3078804552371
-928,Grasp,12m,Frontal,13.6115691208169,17.3505423667068,8.0640760205803,11.4804358028435,25.6551086563226,13.5602112536353,14.3338616022574,4.61770932271499,9.4666793107512,9.58971139046269,7.7023571766557,8.59309735106265,14.1846256108243,27.9847636235434,9.81866589966644,8.88397175615017,6.80145816445941,11.3841060524811,12.3296323742113
-926,Grasp,12m,Frontal,13.6384995118556,17.3724678822481,7.99257831220064,11.4812339956997,25.7653876118803,13.5905350708139,14.3941814081857,4.6339396254747,9.47572231459876,9.5942053757439,7.75043758301879,8.60538697836168,14.2419357694157,27.9688653842239,9.84319437197765,8.87641684307759,6.82436283194546,11.410051471418,12.3513079069802
-924,Grasp,12m,Frontal,13.6643917813195,17.3945861081139,7.92232733433997,11.4775989781662,25.872078338618,13.6225706078905,14.4586549369097,4.64991814533363,9.48405416582716,9.60020260242264,7.79757077111686,8.61832432810217,14.2963379176939,27.9503269120326,9.8663722635604,8.87057920462933,6.84760559356724,11.4361338064087,12.3733125356701
-922,Grasp,12m,Frontal,13.6893170520747,17.4167758583985,7.85377159056295,11.4693935623007,25.9751263397395,13.6562014616741,14.5268021795752,4.66558463382331,9.49189674587272,9.60777767985469,7.84359326504738,8.63181548917954,14.3477051651775,27.9293598733515,9.88806354554385,8.86662100238973,6.87108211687127,11.4622407420418,12.3955639258376
-920,Grasp,12m,Frontal,13.7133556830809,17.4393682814302,7.78696491722818,11.4564960999833,26.0743578127084,13.6913224461147,14.5986582304735,4.68083348148583,9.49975126039896,9.61699553885024,7.88832076678528,8.64581651673176,14.3959908403345,27.9072688271578,9.90829280919154,8.8647032905894,6.89503345395159,11.4882858825533,12.4177012087692
-918,Grasp,12m,Frontal,13.736689473833,17.4624720276529,7.72126527155829,11.4388423414713,26.1694082219549,13.7277398904822,14.6738924928204,4.69566865361202,9.50772308335033,9.62782313084872,7.93154790324863,8.66041894910087,14.4412313486467,27.8832836769379,9.9270495011807,8.86507773586748,6.91929763194105,11.5139131234216,12.4395143218392
-916,Grasp,12m,Frontal,13.7597163730847,17.4857852735736,7.65683388604979,11.4163961062629,26.2600568927097,13.7652039866883,14.7537949414783,4.71012953931113,9.51526973200903,9.64035822549325,7.97310794431323,8.67594381063274,14.4835362427603,27.857652540155,9.94458211740616,8.86785363250857,6.9439759080072,11.5390940298798,12.4608316935163
-914,Grasp,12m,Frontal,13.7825662720616,17.5096396917674,7.59393423718302,11.3891328201569,26.3461812589707,13.8035509908517,14.8359882846216,4.72425304627605,9.52209138536435,9.65426798168706,8.01280153821724,8.69197895637472,14.52281841225,27.8312785392205,9.96032366284799,8.87242194564354,6.96968773221185,11.563929215195,12.4815886491977
-912,Grasp,12m,Frontal,13.8048023681117,17.533773787892,7.53293075360536,11.3570481518323,26.4276470924267,13.8427690186717,14.9192291680671,4.73805271638147,9.52806910568057,9.66929320937473,8.05032630747406,8.70817511815825,14.5591101732608,27.8043383546256,9.97408576053603,8.87843492712604,6.99594596874545,11.5885856767953,12.5018982859989
-910,Grasp,12m,Frontal,13.8263885122795,17.5580324138695,7.47428914330091,11.3201653896017,26.5043376327815,13.8829533481312,15.0030669573423,4.7514048542206,9.53314647962829,9.6852688239843,8.08541589909564,8.72424247908222,14.5926267787684,27.7770766269247,9.98580124915491,8.88581876320596,7.02237489746454,11.6128852887815,12.5220140108446
-908,Grasp,12m,Frontal,13.8473411320387,17.5822512187353,7.41891391936593,11.2785350855529,26.5762988319945,13.9240735449807,15.0871488269505,4.76422669702968,9.53729945484731,9.70157847785586,8.11789830120886,8.74007594467723,14.6235259621282,27.7498330684925,9.99538263613603,8.89466054623488,7.04938296417263,11.6366430407685,12.5420283577985
-906,Grasp,12m,Frontal,13.8677835589731,17.6062387262828,7.36805801216446,11.2322317028414,26.6432107967799,13.9659755889248,15.1712140437028,4.77651667971161,9.54052461918889,9.71826571982642,8.14766785897269,8.75558556514708,14.651770320487,27.72230783898,10.0027361068526,8.90552854978272,7.07686681096634,11.6597790691192,12.5619499710734
-904,Grasp,12m,Frontal,13.8879265373703,17.6300182954272,7.32188505825702,11.1813640264149,26.7048013605438,14.0085622119723,15.2550767832723,4.78855453610487,9.54284045794813,9.73519789524474,8.1746767132706,8.77068894396418,14.6773223522824,27.6960851009357,10.0078036028838,8.91939281109574,7.10440918891526,11.6822515821,12.5818275681485
-902,Grasp,12m,Frontal,13.9078321891527,17.6536180051865,7.28133660080421,11.1260693615998,26.7609757834721,14.0517441078386,15.3386149749785,4.80033109147876,9.54427623815197,9.75201907701813,8.19893964799003,8.78531603038719,14.7001070943824,27.6708557079056,10.0105692621148,8.93560151584502,7.1319483176141,11.7040987477366,12.6017384495477
-900,Grasp,12m,Frontal,13.9279577819804,17.6772046620705,7.24608198456456,11.0664416549548,26.8117435002191,14.095446326376,15.4218500038879,4.8116822669228,9.544880173757,9.76872041581394,8.22057272332976,8.79943607895195,14.7200265203491,27.6471681687851,10.0110474444267,8.95424224405021,7.15973611321784,11.7257747013241,12.621674730792
-898,Grasp,12m,Frontal,13.9480140142059,17.7004957864942,7.21560477301082,11.002459098878,26.8572000764787,14.1396315499201,15.5049868641569,4.82275894381191,9.54472888453474,9.78534924694642,8.23980054806817,8.81305707364375,14.7370391280152,27.6247457699894,10.0092189036875,8.97593720547938,7.18783751459363,11.7465200790572,12.6415999125214
-896,Grasp,12m,Frontal,13.967763478428,17.7230150424545,7.18898575598803,10.9341120863981,26.8975433169479,14.1843022421062,15.5882863341693,4.83372364249449,9.54400773314888,9.80169478755165,8.25694482424187,8.82628613220494,14.7511868067404,27.6039080234088,10.0050439873948,9.00062157908579,7.21638172515368,11.7660899761774,12.6616759667948
-894,Grasp,12m,Frontal,13.9872055345487,17.7450783261183,7.16582242651268,10.861440052991,26.9330077980009,14.2294706210897,15.6715422305414,4.8443591659569,9.54303597929254,9.81756475888429,8.27234429533571,8.83916970153207,14.7625663111462,27.5841136191147,9.99851091728739,9.02804212575397,7.24566662681069,11.7844573152623,12.6823131134625
-892,Grasp,12m,Frontal,14.007240024124,17.7665368000057,7.14606497712909,10.7845298169699,26.9638274474742,14.2751756234693,15.7539659602272,4.85453638884209,9.54198013758947,9.83282055357179,8.28545942080015,8.85172809938767,14.7713458126461,27.5647162862652,9.98967506400293,9.05801505029322,7.27571638645054,11.8017172326509,12.7034413245975
-890,Grasp,12m,Frontal,14.0273517489836,17.7869406694467,7.12970673373489,10.7034950038456,26.9902860531893,14.3214910375803,15.8347087617601,4.86426517138262,9.54144096886427,9.84726973908587,8.29603672875988,8.86413821976839,14.7777588010874,27.5464009272068,9.97864615934545,9.08962407671062,7.30596698786036,11.8180317417451,12.7249730572285
-888,Grasp,12m,Frontal,14.0475736798263,17.8059245472625,7.11746526535279,10.618474349411,27.0128484189628,14.3686334722553,15.9131007312639,4.87361307783609,9.54091834061943,9.86072779690767,8.30413245132094,8.87643903249366,14.7820928338222,27.528333235822,9.96547200287215,9.12234809104967,7.33582269762363,11.8333503770627,12.7463572488733
-886,Grasp,12m,Frontal,14.0676622310921,17.8231117333557,7.10819723250609,10.5296281986689,27.032412364574,14.4171679687582,15.9886266323785,4.88258183562644,9.54037855521817,9.87305904759499,8.30984801990448,8.8885687405247,14.7848774103646,27.5106319286342,9.95018784123509,9.15594251822999,7.36518151981597,11.8476582495618,12.7675399047343
-884,Grasp,12m,Frontal,14.0872409903246,17.8383567252608,7.10136389453582,10.4371371510371,27.0504086620182,14.4670638793118,16.0608790185319,4.89115804361513,9.5400394361889,9.88417114404776,8.31319694835472,8.90054555683593,14.7864486958861,27.493312897633,9.93289989849381,9.19020002639605,7.39427182628174,11.8609915703585,12.7878006270412
-882,Grasp,12m,Frontal,14.1060125721964,17.8516290962696,7.09809118282155,10.3415518770686,27.0670180273801,14.5198131611726,16.1295373993549,4.8993927043928,9.54070747951244,9.89400860981909,8.31415500416889,8.91238699470895,14.7863092006325,27.4767541269453,9.91369833739196,9.22488628860025,7.42319113912743,11.8732096479703,12.8070259673563
-880,Grasp,12m,Frontal,14.1238047955166,17.8630366502785,7.09730852951504,10.2431508916126,27.0817084052165,14.5730101870681,16.1943698259542,4.90741859475182,9.54130124706725,9.90255597430835,8.31274847055978,8.92393355937853,14.784374174979,27.4601704416198,9.89268299205489,9.25981104064632,7.45147338453459,11.8841362134187,12.8251895810624
-878,Grasp,12m,Frontal,14.1406212758093,17.8727785714068,7.09908453376861,10.1417491699032,27.0942913527858,14.6264788982803,16.2552236544762,4.91546214460067,9.54173039148423,9.90982320530834,8.30905880072024,8.93504975138573,14.7807198083249,27.4434293101037,9.87002917031984,9.29494221288303,7.4790542245693,11.8936998539024,12.8429873809906
-876,Grasp,12m,Frontal,14.1565926102899,17.8808236218386,7.10292393116092,10.0376029713728,27.1050753688914,14.6801025617998,16.3120588041118,4.9234727400775,9.54199856782231,9.91578674728681,8.30321445551266,8.9456758821808,14.7755033005439,27.4264958134137,9.846128970733,9.33050602471793,7.50597496229949,11.9019022062989,12.8610361861073
-874,Grasp,12m,Frontal,14.1721005073732,17.8871144168266,7.10850807306844,9.93099826632283,27.1151377500381,14.7337954964395,16.364971861682,4.93140247051243,9.54210259616126,9.92032478815812,8.29538121404559,8.95574315076001,14.7689266137205,27.4097652070355,9.82105322182191,9.36663535392967,7.53257602273767,11.9087716898228,12.8783102667511
-872,Grasp,12m,Frontal,14.1869510799314,17.8918011422565,7.11668316251431,9.82226670004705,27.1245426017373,14.7875305016108,16.4142987136827,4.93927615882551,9.54191476068552,9.9232664107241,8.2857663290096,8.9652277580323,14.7612300251556,27.3937923460571,9.79503030301717,9.40341748888347,7.55865291887559,11.9143456279786,12.8947473705196
-870,Grasp,12m,Frontal,14.2010138366942,17.8957025872384,7.12811186219971,9.71178823988944,27.132239930505,14.841252306273,16.460706196894,4.94712015728354,9.54131341345739,9.92445159729492,8.27462054067399,8.97416107337003,14.7526768634438,27.3780690063704,9.76815472339835,9.44106072302588,7.58422245213804,11.918659872755,12.9102529660522
-868,Grasp,12m,Frontal,14.2137604996876,17.8993067864696,7.14127098457352,9.59998589344903,27.1380538206524,14.8948340847568,16.5049354616578,4.95494695473283,9.54031905032263,9.92378023673381,8.26225711078405,8.98261513262035,14.7435323277516,27.3619201359016,9.74040716312716,9.47959356035259,7.60931120817973,11.9217706492163,12.9248142622048
-866,Grasp,12m,Frontal,14.2250239755427,17.9020640826503,7.15578603266953,9.48727632409732,27.1417743230171,14.9481926610385,16.5480604943006,4.96274846914422,9.53900418719558,9.92122282142635,8.24908797632884,8.99069346349042,14.7340083056574,27.3452331130797,9.71185620616472,9.51864097967122,7.63389104389758,11.9237481203406,12.9384577347947
-864,Grasp,12m,Frontal,14.2348275961797,17.9040914901952,7.17191743772665,9.37402851621844,27.1431146932593,15.001331615718,16.5922717729967,4.97052857018744,9.53755161647225,9.91681202823917,8.23574764123485,8.99855995206203,14.7243925092065,27.3281399555557,9.6827442829096,9.55756959297855,7.65791563553228,11.924671356575,12.9513055073453
-862,Grasp,12m,Frontal,14.243216244809,17.905649289662,7.18981150780196,9.26057317685859,27.1419133900666,15.0543326370558,16.6348585981405,4.97835518753907,9.53594068781655,9.91065478830493,8.22386920243029,9.00638563320056,14.7151614109638,27.3114996234914,9.65345045569967,9.59577794973867,7.6813542329468,11.9246581132804,12.9639597664682
-860,Grasp,12m,Frontal,14.25022403931,17.907038119609,7.20928564492095,9.14726045022991,27.1382087338461,15.1072267102354,16.6741940582619,4.98627575794048,9.53410757748306,9.90288913151921,8.21313484383525,9.01435336185572,14.7057959348197,27.2951943588413,9.62425473338268,9.63278228336296,7.70420839396213,11.9239276455051,12.9769995383585
-858,Grasp,12m,Frontal,14.2560305349678,17.9086628826267,7.23013353694086,9.03449994083536,27.1322900537643,15.1599537880615,16.7099326480939,4.99426851574689,9.53237269561831,9.8932053605428,8.20407227061287,9.0229371358461,14.6961430969183,27.2785640590166,9.59545895734927,9.66820280949837,7.72651255756282,11.9233944889625,12.9900750968094
-856,Grasp,12m,Frontal,14.2605852892396,17.9110448908727,7.25234101029377,8.92268489455473,27.1246121271955,15.2125082183058,16.7418617802217,5.00238187693511,9.53088381046751,9.88145571857051,8.19719408953175,9.03156702424438,14.6862978747732,27.2616007879532,9.56724072818234,9.70173472323314,7.74830860396125,11.9225389154617,13.0026579775117
-854,Grasp,12m,Frontal,14.2638270424348,17.9138857894904,7.27542768309806,8.81217898482024,27.115598208113,15.2649641729655,16.770155299547,5.01064728760342,9.5295211777027,9.86762000614969,8.19245873896147,9.04005016335477,14.6764065972182,27.2442799736997,9.5386333418836,9.73313109189984,7.76957546168241,11.9213755092724,13.0144791032649
-852,Grasp,12m,Frontal,14.2655546439323,17.9172008068244,7.29910386872798,8.70340485353649,27.1047233208776,15.3174613132486,16.7959707022211,5.01894491688267,9.52841564960175,9.85172817753169,8.18944988258027,9.04844896548351,14.6664101837851,27.2268773706963,9.50968804076826,9.76220620083546,7.79018193013145,11.9201932000917,13.0254008078283
-850,Grasp,12m,Frontal,14.2657943413375,17.9209163744106,7.32395468066818,8.59686033507684,27.0916184528039,15.3702491383602,16.8183299579109,5.02719812757968,9.52749934353704,9.8338531909369,8.18763697435586,9.05684182738964,14.6562801849386,27.2088545702183,9.48059373935531,9.78885208276844,7.80999012468688,11.9187348389423,13.0353579279315
-848,Grasp,12m,Frontal,14.264590142137,17.9250436344191,7.34989536222787,8.4933225524053,27.0762167924964,15.4247122016273,16.837013753493,5.03550992672246,9.52664398425091,9.81411554903224,8.18655652728113,9.06521445216256,14.6460777950842,27.1907312392554,9.45151373473873,9.81302234137257,7.82890555905774,11.9168758495023,13.0442744502989
-846,Grasp,12m,Frontal,14.2620658392716,17.9296378062778,7.37650996490269,8.3932726187625,27.0584843934121,15.479803086907,16.8519518807229,5.04403215681125,9.52584911495422,9.79267991904199,8.18581176876265,9.07330201919384,14.6358739207287,27.1712635584492,9.42253388844508,9.83456376093925,7.84685669478319,11.9146623668391,13.0521285011714
-844,Grasp,12m,Frontal,14.2582039376502,17.935076300436,7.40370987478599,8.29684089512696,27.0384247010063,15.5347774520572,16.8635666582952,5.05240029407097,9.52507390774963,9.76975815661476,8.18514014329235,9.08111134007606,14.6257335032521,27.1498248589091,9.39365865871854,9.85315429473761,7.86379141379603,11.9121730319485,13.059035410632
-842,Grasp,12m,Frontal,14.2531095941272,17.9414943886917,7.43146013123659,8.2042123057604,27.0160164184169,15.5895141575425,16.8729122341639,5.06057524223749,9.5242173837041,9.7455830367109,8.18440246795264,9.088142660981,14.615703727887,27.1264483181178,9.36490436556008,9.86847244888365,7.87966745259712,11.9094777225479,13.0651327171873
-840,Grasp,12m,Frontal,14.2469179267525,17.9486319710573,7.46030485646559,8.11563626605748,26.9912071269978,15.6441464394425,16.8810822209843,5.06860286601633,9.52325186191224,9.72035608229003,8.18355358231267,9.09428499067299,14.6058264544395,27.1014783613436,9.33636323752111,9.88028387874104,7.89478580178531,11.9066468457574,13.0703926668009
-838,Grasp,12m,Frontal,14.2398781221416,17.9561492116805,7.49027914823686,8.03164431814646,26.9640060817091,15.6989227328511,16.8875997878225,5.07655432344747,9.52222658492918,9.69415615932302,8.18263544323344,9.09953441231909,14.5961932843531,27.0750469400226,9.30815192915972,9.88842953060244,7.90910821087992,11.9037591706702,13.0747870654797
-836,Grasp,12m,Frontal,14.2324117285488,17.9638642866321,7.52112282909663,7.9535914017857,26.9345076370592,15.753652789808,16.8914144602558,5.08449817351926,9.52123581781376,9.66697687827688,8.18180146258731,9.10398939220742,14.5870778410406,27.0467651176501,9.280393909731,9.89279644496211,7.92227220269079,11.900889594031,13.0781805854081
-834,Grasp,12m,Frontal,14.2237623807987,17.9717656751334,7.55261282796612,7.88097984392056,26.9029250307954,15.8083697288552,16.8920417227196,5.09247894059458,9.52085633229761,9.63886418732218,8.18139881665736,9.107590867563,14.5788117448098,27.0166690262669,9.25322540252604,9.89331579619556,7.93424868845423,11.8981190740751,13.0804087820792
-832,Grasp,12m,Frontal,14.2136985353964,17.9802295817701,7.5843196409038,7.81489368524485,26.8710037233006,15.863002074031,16.8893585437148,5.10052350017599,9.5211769291217,9.60996044127444,8.18177258234083,9.11016510216766,14.5715821783518,26.9856260724509,9.22685703305168,9.88995794169244,7.94500634712911,11.8955281321498,13.0814200339913
-830,Grasp,12m,Frontal,14.2021179494018,17.9895925761291,7.6162374205548,7.7547971577455,26.8380359598358,15.9168685558786,16.8833824252198,5.10873563019373,9.52228364701374,9.58042152636736,8.18282966595243,9.11169611982531,14.5652408114992,26.9525385954404,9.2015250291901,9.88273420513091,7.95450392420299,11.8931792327254,13.0812293641532
-828,Grasp,12m,Frontal,14.1889450386797,17.9998710918803,7.64949708599381,7.70029451586398,26.8043414781538,15.9695163970765,16.8741700093944,5.11680455450723,9.52373640028032,9.55024613191272,8.18444495286629,9.11222962044401,14.5596178332988,26.9174863091782,9.1774650172668,9.87171001061611,7.96269586143626,11.8911819086179,13.0798996415995
-826,Grasp,12m,Frontal,14.1742943725323,18.0115699951464,7.68409448198831,7.65121860822352,26.7715062683575,16.0206670548352,16.8617958341944,5.12441917604215,9.52562693031973,9.51949863802704,8.18667747128073,9.11182659382317,14.5544617347938,26.8811142244306,9.15505501649458,9.85701878787537,7.96954213570578,11.8896750922113,13.0775288159149
-824,Grasp,12m,Frontal,14.1583518422746,18.0246498213524,7.71935447695842,7.60686167496356,26.738170102109,16.0701339031482,16.8463597396035,5.1314777100733,9.52813447467318,9.48834402304026,8.18958747390489,9.1105577003288,14.5499308645336,26.8437138253766,9.13435848360221,9.83885918566518,7.97502090569014,11.8886731031752,13.0742155172933
-822,Grasp,12m,Frontal,14.1414295348746,18.0384167755538,7.75499027537307,7.56661645045509,26.7040196083469,16.1177716026718,16.8279126072508,5.13801294614635,9.53152168417484,9.45698180676814,8.1931624105837,9.10852752494822,14.5465397981741,26.8048108133386,9.11547839375755,9.81738815306115,7.97911846657036,11.8886197057716,13.0700270883005
-820,Grasp,12m,Frontal,14.1234406590342,18.0522055194803,7.79116669315029,7.53014301032133,26.668977228422,16.1634770244213,16.8064636626349,5.14391197169949,9.53613321899301,9.42556004793415,8.19737695908408,9.10584525789018,14.5436875073628,26.7644171499082,9.09867531689607,9.79266044730561,7.98179625594725,11.8902645493435,13.0650402309835
-818,Grasp,12m,Frontal,14.1042659812132,18.0655289555565,7.8280736161624,7.49726091982834,26.6322795442739,16.2071776735735,16.7820651475299,5.14899118722921,9.54226763625201,9.39412504486773,8.20216754856465,9.10244497950581,14.5412430302951,26.7223738113757,9.0843890237701,9.76472216320563,7.98296511222857,11.8931907306052,13.0593307447907
-816,Grasp,12m,Frontal,14.0840510802279,18.0782563568712,7.8658823121127,7.46822617027564,26.5932965930425,16.2488386082509,16.7548712913319,5.15315744280866,9.55029291264107,9.36268041285234,8.20744539804955,9.09827079581653,14.5391963867111,26.6787599174587,9.07324832123766,9.73369824499455,7.98271046452475,11.897222866669,13.052967815675
-814,Grasp,12m,Frontal,14.0629354241914,18.0903987356255,7.9048871854654,7.44255776847428,26.5517552682325,16.288454069365,16.7251554909684,5.15634668162403,9.56026042646666,9.33125397487151,8.21314831515268,9.09343038973488,14.5374242460549,26.6336981557315,9.06537112615924,9.69980534153919,7.98112410574072,11.9025766278825,13.0460426606531
