Time,Condition,Age,Cluster,connect_overtime_LA_EEG_12_P04_CTS_MTH_chanpair_12m.mat,connect_overtime_LA_EEG_12_P05_CTS_MTH_chanpair_12m.mat,connect_overtime_LA_EEG_12_P06_CTS_MTH_chanpair_12m.mat,connect_overtime_LA_EEG_12_P07_CTS_MTH_chanpair_12m.mat,connect_overtime_LA_EEG_12_P08_CTS_MTH_chanpair_12m.mat,connect_overtime_LA_EEG_12_P10_CTS_MTH_chanpair_12m.mat,connect_overtime_LA_EEG_12_P11_CTS_MTH_chanpair_12m.mat,connect_overtime_LA_EEG_12_P16_CTS_MTH_chanpair_12m.mat,connect_overtime_LA_EEG_12_P17_CTS_MTH_chanpair_12m.mat,connect_overtime_LA_EEG_12_P19_CTS_MTH_chanpair_12m.mat,connect_overtime_LA_EEG_12_P20_CTS_MTH_chanpair_12m.mat,connect_overtime_LA_EEG_12_P21_CTS_MTH_chanpair_12m.mat,connect_overtime_LA_EEG_12_P22_CTS_MTH_chanpair_12m.mat,connect_overtime_LA_EEG_12_P23_CTS_MTH_chanpair_12m.mat,connect_overtime_LA_EEG_12_P24_CTS_MTH_chanpair_12m.mat,connect_overtime_LA_EEG_12_P25_CTS_MTH_chanpair_12m.mat,connect_overtime_LA_EEG_12_P26_CTS_MTH_chanpair_12m.mat,connect_overtime_LA_EEG_12_P27_CTS_MTH_chanpair_12m.mat,connect_overtime_LA_EEG_12_P28_CTS_MTH_chanpair_12m.mat
-1500,Grasp,12m,Occipital,21.4527259873783,20.3170230341504,21.1621196314289,16.6088321997421,34.2594281485907,14.2791625868214,13.6660656030089,6.21448965129697,21.6268389946335,16.475322082182,19.1039631331711,27.2206592415226,19.9865517938629,20.1088291974221,26.6049678716018,20.5351588797865,24.384416201168,20.3655642459456,14.0638563681231
-1498,Grasp,12m,Occipital,21.4245707499548,20.3615311590979,21.1480169496884,16.7195660922181,34.2498085692235,14.2301738334709,13.6661829368963,6.21653174721602,21.6555335122392,16.5781737559067,19.1771728451516,27.1637749499359,19.9705315829906,20.0814565843536,26.6080272303873,20.5115001482312,24.487466889044,20.333837718474,14.0256658867881
-1496,Grasp,12m,Occipital,21.396134167936,20.4064665574766,21.1323723483449,16.8370705690281,34.2390265118181,14.1798685221944,13.6687842986658,6.21871919798279,21.6794116719375,16.6837820795558,19.2483523305551,27.1051267869385,19.95112833592,20.0530359060939,26.6057707228105,20.4918714544689,24.5906114034616,20.2984383259323,13.9876332082202
-1494,Grasp,12m,Occipital,21.3677142986399,20.4518578017582,21.1150155558593,16.9614743482433,34.2274993176257,14.1283306244464,13.6732557072121,6.22112172072452,21.6987170636047,16.7915015462656,19.3176490752724,27.0444664394853,19.9281784158009,20.0234766840674,26.5982603176951,20.4758993161907,24.6941081653128,20.2595237211154,13.949867624096
-1492,Grasp,12m,Occipital,21.3410401565065,20.4975464545447,21.0960147987177,17.0933393601689,34.2143990891409,14.0754415242631,13.678974472492,6.22381356279446,21.7136821728662,16.9008753832377,19.3848451120076,26.9815249789554,19.9018491762998,19.9927903487863,26.5856861222118,20.4633854127623,24.7982530572384,20.2173242599873,13.9131943451447
-1490,Grasp,12m,Occipital,21.3153702888066,20.5433977269132,21.0756382378449,17.2337977787144,34.2001217643715,14.0213050960351,13.6855184127584,6.22694095283173,21.7244954125827,17.0117164697429,19.4494361182833,26.9166195386634,19.8722793470732,19.9610491995239,26.5687108141083,20.4542032960069,24.9028519186286,20.1721443968669,13.8775264246554
-1488,Grasp,12m,Occipital,21.2902975897577,20.5892434062802,21.0543505183755,17.3822474302366,34.1841262703384,13.9662976219125,13.6925430047219,6.2305435498705,21.7313456897559,17.1241542081669,19.5110518081866,26.8503721525381,19.8394837417377,19.9282790826166,26.5478431619176,20.4482746884576,25.0073366247188,20.1243785011914,13.8429535287382
-1486,Grasp,12m,Occipital,21.2656967090587,20.6348527759677,21.0334020588723,17.5373479857166,34.1665193187948,13.9107630478996,13.6997052913237,6.23440405747647,21.7344254312266,17.2377626407631,19.5694987245609,26.782243749214,19.8034875278907,19.8943387088781,26.5226508288544,20.4455605376926,25.1119740654167,20.0744584939699,13.8092527258979
-1484,Grasp,12m,Occipital,21.2422151452337,20.6799824163638,21.014395363604,17.6973650520789,34.1469047166398,13.854710707496,13.7067535032302,6.23837711418355,21.7337784650858,17.3522421246705,19.6246946741391,26.7119012637635,19.7644249074136,19.859036045477,26.4932018279312,20.4460521921194,25.2157485389285,20.0228648559497,13.7761246551967
-1482,Grasp,12m,Occipital,21.2191598813827,20.7245381456521,20.996194309684,17.8608173719268,34.1256463486526,13.798830546516,13.7138623215215,6.24266658614093,21.7292250062033,17.4677014658468,19.6766301368632,26.6390539860849,19.7225654650473,19.822260878684,26.4592636752897,20.4497673274059,25.3183380105455,19.9702405500433,13.7436965196327
-1480,Grasp,12m,Occipital,21.1962051184063,20.7686310181349,20.9779973505493,18.0265643755568,34.1033329874986,13.7468653345856,13.7218171649616,6.2474771815641,21.7206151118225,17.5840824365694,19.7253498132461,26.5638008258105,19.6783850976885,19.7840085203812,26.420634414753,20.4567482205606,25.4199613608947,19.9157354637024,13.7110997129813
-1478,Grasp,12m,Occipital,21.1736075952533,20.8117781184076,20.9588648035024,18.1937229522815,34.0806154086415,13.6953335902096,13.7299998802489,6.25236972757614,21.7079808955288,17.7007631377249,19.7709377104237,26.4864461235682,19.6324425820871,19.744645498267,26.3773115593334,20.4670626315919,25.5209915779561,19.8593675568109,13.6779578291778
-1476,Grasp,12m,Occipital,21.1525649916524,20.853529620399,20.9381813116236,18.3616080030516,34.0582199735449,13.6441452923731,13.7372830805728,6.25736971665903,21.6915310732569,17.8180717870178,19.8135237767473,26.4070258059527,19.5849933012691,19.7041984273352,26.3295220209948,20.4808055957469,25.6209925981365,19.8012212628514,13.6440619091764
-1474,Grasp,12m,Occipital,21.1326215674216,20.8937356840975,20.915478892379,18.5296924395004,34.0369261559387,13.593503063916,13.7432433829699,6.26283323054238,21.6716103101804,17.9354737958801,19.8532712187385,26.3255154655018,19.5363298391954,19.6628223300108,26.2778257257499,20.498106384263,25.7192291320647,19.7413703986044,13.6093003903507
-1472,Grasp,12m,Occipital,21.1134544806053,20.9323977629926,20.8903485580623,18.697590883264,34.0186944460698,13.543397384845,13.747745363428,6.26863171753926,21.6486660917966,18.0520216633423,19.8903893900764,26.2421668234355,19.4869259024381,19.6208552291142,26.22306551215,20.5191491795306,25.8152965248863,19.6799216620816,13.5736937639762
-1470,Grasp,12m,Occipital,21.0951243830899,20.969499980086,20.8624280487012,18.8649329549144,34.0016995556174,13.4939564851779,13.7507331625329,6.27427310835705,21.6231746084454,18.1672415141912,19.9251229614354,26.1577251492698,19.4370643965784,19.57856020331,26.1647905866582,20.5442090882189,25.9090302350048,19.6170277659385,13.5374929619348
-1468,Grasp,12m,Occipital,21.0778996898685,21.0048902545117,20.8314583012541,19.031183261742,33.9862965924117,13.4454085447292,13.7520729020859,6.27976178997813,21.5956305890138,18.2807450970232,19.9577632399121,26.0715938372078,19.3870598092231,19.5358918299293,26.1025510540723,20.5737495922149,26.000570803452,19.5528952370465,13.5011849677947
-1466,Grasp,12m,Occipital,21.0621492220344,21.0384560917766,20.7972750597593,19.1956218087437,33.9740795785716,13.3980395664833,13.751504338105,6.28519383966861,21.5665334659202,18.3921974419238,19.9886283802849,25.9844498347214,19.3375206848841,19.4935626512023,26.036252072239,20.6081680622566,26.0901345070126,19.4877377394329,13.4647802155976
-1464,Grasp,12m,Occipital,21.0493219071616,21.0701727983679,20.7597881357353,19.3575108284047,33.9626865720397,13.3522563568065,13.7487752125343,6.29071492014025,21.5363774075659,18.5013180914148,20.0180735622743,25.8952568602274,19.2886292099175,19.450989409466,25.9659536728299,20.6473009816804,26.1773368921192,19.4218133638491,13.4281515401744
-1462,Grasp,12m,Occipital,21.0390390746472,21.1000959074321,20.7188407167459,19.5161885218538,33.9515338570111,13.3088690222813,13.7437004074152,6.29628428876265,21.5056132685932,18.6078664010526,20.0484672078068,25.8040245927846,19.2404365126691,19.4086455351936,25.8917982992931,20.6907461484159,26.2617577813782,19.3553966411873,13.3914346759058
-1460,Grasp,12m,Occipital,21.0313913909535,21.1284364490727,20.6740194801346,19.6710901971404,33.940300147251,13.2691817381688,13.7361531244449,6.30175762859042,21.4746719587953,18.7116312052718,20.0794228097919,25.7108544247255,19.1933785219785,19.3674000817639,25.813503143586,20.738178734174,26.3432271208209,19.2886005621322,13.3548228607409
-1458,Grasp,12m,Occipital,21.0265592746567,21.1555965132907,20.6248457794256,19.8217381766742,33.9289762986156,13.233654579164,13.7260473115958,6.30708975651264,21.4440350450615,18.8124255047834,20.1096403253342,25.6160183122792,19.147757179668,19.3271860179479,25.7311103140719,20.7894043533896,26.4217140016767,19.2215233606188,13.3184407975722
-1456,Grasp,12m,Occipital,21.0251109672309,21.1815919956792,20.570947269564,19.967766138462,33.9177746568084,13.2021570347794,13.7133376730821,6.31230723810185,21.4142794297218,18.910106786839,20.139258419935,25.5201928086572,19.1036174660592,19.2884341528469,25.6448225884097,20.844865304647,26.4972918709971,19.1544556853271,13.2823275287181
-1454,Grasp,12m,Occipital,21.0266806422076,21.2062749402228,20.5120335157705,20.1090128706044,33.9070572240808,13.1746075413637,13.6980108804875,6.3174969637408,21.3860792538673,19.0045802564176,20.1684500468671,25.4234189193279,19.0609124103919,19.2514564796998,25.5549674654756,20.9059444459077,26.5701154726793,19.0874455960985,13.2464184333454
-1452,Grasp,12m,Occipital,21.0305996285414,21.2295481040128,20.4478834281716,20.245660982406,33.8973578530312,13.1511111912912,13.6800875536351,6.32282584326559,21.3601195514645,19.0958163160833,20.1974368266017,25.3263062408392,19.0197718935117,19.2165247759307,25.4628256395684,20.9729675187562,26.6404772000946,19.0204651043763,13.2107431504194
-1450,Grasp,12m,Occipital,21.0376079490935,21.2513539286726,20.3783443849368,20.3773602774591,33.8893393375584,13.1314606023888,13.6596149214068,6.32853740437295,21.3368754666152,19.1838403928262,20.226499494959,25.2281909632044,18.9803497169035,19.1821916257623,25.3676522477657,21.0445620496205,26.7090932536638,18.9542688585244,13.1757211307476
-1448,Grasp,12m,Occipital,21.0465489855922,21.2716762524975,20.3033310978412,20.5033406898939,33.8836438877805,13.1155818445248,13.6366395887529,6.33459356821061,21.3165887465297,19.268727681369,20.2559386996814,25.1290072791216,18.943014665062,19.1480022634779,25.2700843322311,21.1194891299175,26.7761927284743,18.8885394398866,13.1417642213672
-1446,Grasp,12m,Occipital,21.0565170454895,21.290517152247,20.2228383656783,20.6231951345141,33.8807446926997,13.1047449505382,13.6111920915594,6.3407826148722,21.2994669249929,19.3504519976496,20.2860100593153,25.0289256425746,18.9084225034886,19.1138765333947,25.1711234343721,21.1972951255329,26.841143483537,18.8233357587483,13.1085388049335
-1444,Grasp,12m,Occipital,21.0671064795135,21.3078676403152,20.136931058618,20.73671593972,33.8816940269288,13.1012223322229,13.5832852971874,6.34703235616227,21.2857597539907,19.4288781877,20.3168413569129,24.9281693555976,18.8773169727426,19.0801632598642,25.0691712596257,21.277753063347,26.903765629182,18.7589611100147,13.0759263332172
-1442,Grasp,12m,Occipital,21.0780058488618,21.3236779370968,20.0456727960397,20.8438293239125,33.8869192079086,13.1020279537589,13.5529312533637,6.35338718283104,21.2761418928146,19.5048491528767,20.3484286464174,24.8269603543186,18.8501638374781,19.0469669616915,24.9641796878758,21.360754342179,26.9641056026742,18.695288381687,13.0440389457797
-1440,Grasp,12m,Occipital,21.0889697245566,21.3378660018545,19.9490764935272,20.9445742025119,33.8948655072636,13.1072785277645,13.5201903149365,6.35997077506469,21.2711720397816,19.5789118183626,20.3807110396657,24.7254666437757,18.8270757102156,19.0146914932618,24.8568085424625,21.44639075109,27.0224358695458,18.6322654410179,13.0129120435874
-1438,Grasp,12m,Occipital,21.0998953508311,21.3503595906831,19.8472056698393,21.0388118344611,33.9066702802195,13.1188221930345,13.4852565059899,6.3669295185814,21.273342181038,19.6496172783874,20.4136472756122,24.6238319554144,18.8081377305327,18.9832617008006,24.7481933508253,21.5348855864923,27.0791727833615,18.5700221610032,12.9824261069489
-1436,Grasp,12m,Occipital,21.1112644051477,21.3611336280863,19.7404925748057,21.1263194217415,33.9220122367795,13.1357107258264,13.4485422718776,6.3744803645774,21.2829303572359,19.7168382332541,20.4472463418261,24.522344438509,18.7932385741086,18.953136970344,24.6388897834293,21.626070258592,27.134090387435,18.5087775239163,12.9525221719292
-1434,Grasp,12m,Occipital,21.1233247726063,21.3702163933279,19.6289719934224,21.2070115504841,33.9402795771156,13.156884760593,13.4103077533714,6.38340121189369,21.2954431584873,19.7807026496602,20.4815325398127,24.4219043757415,18.7818610647593,18.9237278591823,24.5289031005309,21.7198155496456,27.186616003712,18.4488493435418,12.9232186957978
-1432,Grasp,12m,Occipital,21.1357489397376,21.3776900097152,19.5124173082065,21.2809124893974,33.9629853636135,13.1829528171744,13.3703350781537,6.39345163818372,21.3098364619107,19.8412317680702,20.5164894437177,24.3226756318742,18.7737016551303,18.8948840873455,24.4185866731856,21.8164832417859,27.2364548162527,18.3908264496471,12.8945889284752
-1430,Grasp,12m,Occipital,21.148848835894,21.3837031510256,19.390956581534,21.3481227013689,33.9902258158132,13.2139386509975,13.328551882389,6.40396492633437,21.3256413370334,19.8982088607412,20.5520655220226,24.2249610730491,18.7689657068397,18.8668715914708,24.3082246156238,21.9154283003811,27.2835152711692,18.3346707489598,12.8667654159308
-1428,Grasp,12m,Occipital,21.1620340215217,21.3884880271325,19.2648266812447,21.4088268100693,34.0211485811902,13.2484055760727,13.2853304278321,6.4148085271974,21.3425001301453,19.9514244935373,20.5882249333643,24.1294149426418,18.7676027038842,18.8415179547388,24.1976918095959,22.0153016548181,27.3278438311874,18.2800023179931,12.8400034381708
-1426,Grasp,12m,Occipital,21.1748990714733,21.3923455389268,19.1343325300147,21.4633582258238,34.0554650076417,13.2859303426803,13.2408240887502,6.42599129751575,21.3601233011123,20.0006502267758,20.6249518413052,24.0366155228955,18.7693580533604,18.8187630618518,24.0861389088779,22.1154594565938,27.3695786676686,18.2266942913196,12.8149281793625
-1424,Grasp,12m,Occipital,21.1873383029991,21.3955485530514,18.9998421484564,21.5126406696036,34.0932967420857,13.3263245903601,13.1946217400353,6.43776220379516,21.3782926691707,20.0456832592142,20.6622539855273,23.9462885869195,18.7747011228968,18.798135963421,23.9731361451937,22.2162194751033,27.408835762683,18.1746572029746,12.7913690672221
-1422,Grasp,12m,Occipital,21.1996904232091,21.398137767992,18.8617859448498,21.5574965404304,34.1347554262619,13.3695492405678,13.1465429084277,6.45013409091594,21.3968709466825,20.0863860559693,20.7002034736073,23.858320608209,18.785448089355,18.7784598496236,23.8585928747056,22.3180930722035,27.4455608526076,18.1239210835521,12.76933462596
-1420,Grasp,12m,Occipital,21.2124606038329,21.3999680799209,18.7206574151628,21.5970122023637,34.1798984470031,13.4157080582887,13.0965796028755,6.46302807713735,21.415828990447,20.1226749832338,20.7389399258668,23.7726801897047,18.8008238801159,18.7595643632351,23.7417185503007,22.4196382514687,27.479576359922,18.0746006347225,12.7497357842382
-1418,Grasp,12m,Occipital,21.2257670099809,21.4009607289425,18.5770149462139,21.6307841336768,34.2288276356875,13.465059333974,13.0447832927164,6.47638386015567,21.4352990570735,20.1545154626457,20.7784735803435,23.689328598112,18.820872025466,18.7411658452844,23.6220816832255,22.5195347192803,27.5107366833603,18.0270028118441,12.7325035103761
-1416,Grasp,12m,Occipital,21.2393366846871,21.4011759321564,18.4314811221449,21.6587518167907,34.2814581775649,13.518069457319,12.9912248275156,6.49006401925068,21.4556116527387,20.1819114283898,20.8185363319633,23.6090968181132,18.8461504546672,18.723103442366,23.4996814547823,22.6171574128902,27.5389658736554,17.9814922969648,12.7167955255472
-1414,Grasp,12m,Occipital,21.2535165313064,21.4028704726479,18.2848072680065,21.681069384697,34.337312777065,13.5752316899131,12.9359905350728,6.50413302812511,21.4769880727406,20.204907702219,20.8587869708575,23.5317432704097,18.8772000826184,18.7052637329962,23.3746156203926,22.7121268639852,27.5642425037797,17.9379242556304,12.7022596282668
-1412,Grasp,12m,Occipital,21.2687451421783,21.4034916330871,18.1384267490577,21.6980738508642,34.3960466116709,13.6361320662884,12.8791901282542,6.51868712841476,21.4991814392921,20.2236166681609,20.8989001213268,23.4567458019543,18.9146311632472,18.6877754491396,23.2469927037159,22.804182326208,27.586601000404,17.8956831017363,12.688808794709
-1410,Grasp,12m,Occipital,21.2853725634779,21.4030079254208,17.9930753041525,21.7088986532304,34.4583302130387,13.6995329902545,12.820961508966,6.53317166267355,21.5219619035028,20.2382156282259,20.9385544237026,23.3843204558422,18.9591480374161,18.6707024224065,23.1168378197448,22.8931367264016,27.6061029344925,17.8541677493296,12.6767893749665
-1408,Grasp,12m,Occipital,21.3035767030359,21.4014508577735,17.8501013227415,21.713159500062,34.5239001908246,13.7643488005302,12.7614859326993,6.54752429260474,21.5453578333469,20.2489513819251,20.9774607745571,23.3148466041089,19.0114938697595,18.6540648867928,22.9842670391876,22.9788867365339,27.6228520282381,17.8130683869366,12.6668031615347
-1406,Grasp,12m,Occipital,21.3234965984046,21.3988710418452,17.7101891298298,21.7106078359492,34.5919051987708,13.8299811749619,12.7009910406455,6.5616962938912,21.5691517535301,20.2560376484197,21.0153715505511,23.249029608941,19.0729006644178,18.6384221145219,22.8500533507613,23.0614082463821,27.6369785968162,17.7725511426331,12.6595064278883
-1404,Grasp,12m,Occipital,21.3450883146488,21.3953229632883,17.5745590765056,21.7011137415259,34.6621338112483,13.8961965718584,12.6397712587269,6.57562787902627,21.5926422719675,20.2595625239026,21.0521065563543,23.1876517696391,19.143362199096,18.6249331277259,22.714051023839,23.1408270364431,27.6486553700006,17.7324268823134,12.6543703184712
-1402,Grasp,12m,Occipital,21.3692406511294,21.3908367950993,17.4480036644095,21.684624276667,34.7344157216288,13.9631572579174,12.5782923210588,6.5892398205344,21.6151277695023,20.2595424389277,21.0875319831784,23.1309568608907,19.220844034034,18.6120996842063,22.5761002621016,23.2175836772174,27.6580861918022,17.6923075653531,12.6505989821575
-1400,Grasp,12m,Occipital,21.3966112975979,21.385450424535,17.3264591705011,21.6610619009907,34.8086913335726,14.0313368830513,12.5174211459261,6.60244799845064,21.6363381029678,20.2560484261702,21.121512129394,23.0792243414811,19.3042994636522,18.6003452016978,22.4363471369846,23.2923958841056,27.6660871294244,17.6522118150384,12.6476715706859
-1398,Grasp,12m,Occipital,21.4254015753345,21.3792383161305,17.210343616456,21.630381258355,34.8852956422423,14.1007980931338,12.4575227500726,6.61516690953451,21.6562665251914,20.2492253488485,21.1538649190634,23.0327319956719,19.3931385977668,18.5895263279012,22.2949624135423,23.3652354356882,27.6732867430828,17.6122054362791,12.6451196061115
-1396,Grasp,12m,Occipital,21.4557936170698,21.3723724279037,17.1002752303742,21.5926748676372,34.9649623832573,14.1710285732778,12.3992113713308,6.62732434392676,21.6740676320789,20.2393099267702,21.1844199169901,22.9918617456018,19.4868708796843,18.5793622411942,22.1522218189558,23.4358369586753,27.678875634621,17.5723618782312,12.6425503097521
-1394,Grasp,12m,Occipital,21.4872065983001,21.3653512425829,16.9971953914249,21.5482424268909,35.0469094151085,14.2408622193015,12.3426211104683,6.63888063948776,21.6892419328543,20.2266726066777,21.2130406756646,22.9566713863974,19.5850418528271,18.5702474270996,22.0085060227134,23.5043358459721,27.6831266599613,17.5327950658344,12.639643071789
-1392,Grasp,12m,Occipital,21.5194577461686,21.3585881934124,16.9031586547114,21.4990032975557,35.1307202241292,14.3094544563012,12.2878010104363,6.64986351175911,21.70155408976,20.2117127120086,21.2396314331916,22.9270303787694,19.6872554841519,18.561848123489,21.8642951214083,23.5709102457826,27.6864936056294,17.4937959976739,12.6361474646949
-1390,Grasp,12m,Occipital,21.5526339895574,21.3519702173715,16.8250642505004,21.4433310714677,35.2158613910494,14.3762950413332,12.2350179022732,6.66039104992841,21.7108562813338,20.1948798437335,21.2641538297498,22.9034021958367,19.793241397973,18.5543048313388,21.7201696104053,23.6356647588665,27.6895578590761,17.4557756965429,12.6318823939618
-1388,Grasp,12m,Occipital,21.5868761292998,21.345805102624,16.758662577199,21.3813708309376,35.3020316266933,14.441044927297,12.1850854595121,6.67057535796977,21.7170568216984,20.176594997962,21.2867046214828,22.8852945934551,19.9029038148197,18.5479432989916,21.5768316408164,23.6984257881583,27.6926891116569,17.4190140736863,12.6267266343736
-1386,Grasp,12m,Occipital,21.6244549889537,21.3407043436119,16.6993001717584,21.3132795748519,35.3891407529625,14.5034618667621,12.138590124935,6.68046569372951,21.7201093332397,20.157406263749,21.3080588818334,22.8717838785215,20.0165695704397,18.5430171289126,21.4351196521542,23.7586760017994,27.6963188011795,17.3833548271977,12.6206090756539
-1384,Grasp,12m,Occipital,21.6638522364498,21.3367976600502,16.6467292988431,21.2392135033217,35.4780231478608,14.5633717054909,12.0948359478113,6.690004812886,21.7200345475625,20.1370024730713,21.3296353216851,22.8626067257944,20.1371089064683,18.5395681925076,21.2954738737999,23.8159689540223,27.699757937712,17.3484529961245,12.6135131794743
-1382,Grasp,12m,Occipital,21.7047970295887,21.3339271564181,16.6007040422233,21.1593108474895,35.5689117046313,14.620636383546,12.0551079328123,6.69918482885864,21.7169291949459,20.1149675268241,21.3498811628391,22.8579248334628,20.2641008181903,18.53763664533,21.1584274784563,23.8699383652839,27.7026159311335,17.3142111573166,12.6054639145414
-1380,Grasp,12m,Occipital,21.7468866970741,21.3324993249868,16.56126489937,21.0737296112103,35.6609027223009,14.6751606855294,12.0178898232039,6.70815578427943,21.7110460990096,20.0911360198843,21.3676387879747,22.8576365948386,20.396822912442,18.5371846218855,21.0246085775686,23.9202047738762,27.7051654475372,17.2808269886281,12.5965378985161
-1378,Grasp,12m,Occipital,21.7897242995106,21.3323979664185,16.5291880695318,20.9826844900644,35.7540900567377,14.7268951938704,11.9830195171529,6.71692305345724,21.702855178988,20.0652352609721,21.3825276856296,22.8614478751618,20.5333568775386,18.5371626538978,20.894590660022,23.9664218714406,27.7072559360535,17.2496525345363,12.5868795868952
-1376,Grasp,12m,Occipital,21.8331528281549,21.3335639428198,16.5033971502422,20.8863976091781,35.8486606132765,14.7758579231316,11.9506418964128,6.72541078818517,21.6927477796871,20.0373837222923,21.3943259222918,22.8696046434241,20.6739980216588,18.537389424538,20.7688550351329,24.0083607930017,27.7080312639374,17.2201083254373,12.5767668278574
-1374,Grasp,12m,Occipital,21.877121708222,21.335989860282,16.4832195865728,20.7848820044907,35.9444400904683,14.8221189829171,11.9210452220191,6.73380911209108,21.6808221642107,20.0077592614566,21.4028449228899,22.8822047642125,20.8182455758668,18.5378489196788,20.647861541666,24.045871227824,27.7069239607124,17.1918200281046,12.5664940159489
-1372,Grasp,12m,Occipital,21.9215605669162,21.3397382863844,16.4686461433566,20.6779992329092,36.0407845315549,14.8658364089233,11.8952320658842,6.7420556331557,21.6673194927629,19.9770547765526,21.4079401369383,22.8996646862491,20.9655184344146,18.5386903463369,20.5321639540443,24.0788939332695,27.7036413900511,17.1648443255974,12.5564224772599
-1370,Grasp,12m,Occipital,21.9663093171154,21.3451273360822,16.4598687570162,20.5656752787285,36.1370866665318,14.9073277640792,11.8732073882866,6.74995096666434,21.6525804905689,19.9457823132838,21.4094941725641,22.9216124542554,21.1150219153116,18.5400336685548,20.4225947076515,24.1074158986098,27.6980092270355,17.1394317259195,12.5473794758572
-1368,Grasp,12m,Occipital,22.0112441271049,21.3525116417745,16.457084667209,20.448028654871,36.2330111673101,14.947276988135,11.8543010665231,6.75748425770794,21.6368113174577,19.9131292716294,21.4074178389919,22.9471924568334,21.2659010823437,18.5417723075209,20.3199817002557,24.1314645176782,27.6899294479664,17.1164388304475,12.5389665782433
-1366,Grasp,12m,Occipital,22.0564031658622,21.3619819439503,16.4597934580849,20.3253853628574,36.3308015845849,14.9862613747063,11.8386611861555,6.7646912467467,21.6198814065008,19.8790695244041,21.4016528893831,22.9752324805008,21.4176024773095,18.5435520210446,20.2250065253793,24.1510983882401,27.6793932637721,17.0957051352269,12.5308872247334
-1364,Grasp,12m,Occipital,22.1020449131525,21.3733754067433,16.4671911477472,20.1982611577573,36.4292034792081,15.0241969083855,11.828036339593,6.77164390043612,21.6014271572514,19.8436074328363,21.3921679622145,23.0049538558299,21.5697282034618,18.5450373094871,20.1387418313224,24.1663951939353,27.6664978433498,17.0780840691969,12.5231816949695
-1362,Grasp,12m,Occipital,22.1491345655634,21.3864650288216,16.4788321209691,20.0673603846464,36.5265567513362,15.0614246429682,11.8222106730808,6.77846432234089,21.5811585028919,19.8067200503924,21.3789641985866,23.0357895200569,21.7219606275401,18.5460038707211,20.0624569381084,24.177444804668,27.6514318365993,17.0618798830825,12.5160772069416
-1360,Grasp,12m,Occipital,22.1987450567121,21.4010496807372,16.4947282429785,19.9335639704914,36.6228050227809,15.0988356490329,11.8201381739951,6.78541889515027,21.5589718502022,19.7683996098239,21.3620996546385,23.0672562142907,21.8740607160297,18.5463521685837,19.9969222107851,24.1843562148362,27.6342329152421,17.0479512053726,12.5101694717702
-1358,Grasp,12m,Occipital,22.2499537797832,21.4171977189378,16.5154744272383,19.7978412286262,36.7178470071887,15.1372999239683,11.821935685042,6.79286075881827,21.5348995070467,19.7286922193133,21.3417300839524,23.0988799207555,22.0258993678188,18.5461057089301,19.950941033095,24.1872435530556,27.6145576615812,17.0364116285471,12.5058229678896
-1356,Grasp,12m,Occipital,22.3031057906413,21.43494191816,16.5411101954469,19.6611614191813,36.811441547202,15.1761557430337,11.8278263578903,6.80128574079879,21.5090761495063,19.6877316992056,21.3182829871066,23.1301972614222,22.177724296556,18.5454261951049,19.9341143535151,24.186233744533,27.5919758228678,17.0266880898045,12.50305864799
-1354,Grasp,12m,Occipital,22.3578924463941,21.4536131783284,16.5710981954434,19.5245460515238,36.9033368985364,15.2147640235024,11.8380739073041,6.81095581334886,21.4816850641768,19.6457028290882,21.2922633956569,23.1607908098037,22.3297116833315,18.544559414515,19.9328275436926,24.1814609045981,27.5661586061253,17.0184190686398,12.5021960406541
-1352,Grasp,12m,Occipital,22.4143655215868,21.4731663009404,16.6052968704669,19.3896642090987,36.9933991016602,15.2527597474523,11.8529499451801,6.82159521909992,21.4529200526421,19.6027362833837,21.2633449650735,23.1903546527558,22.4812901306076,18.5439379549796,19.9433726992833,24.173076667757,27.5368846980424,17.0113852744165,12.5033376959757
-1350,Grasp,12m,Occipital,22.4737114427099,21.4934258192504,16.643331369491,19.2575138320134,37.0814598345614,15.2898692237854,11.8726284049611,6.83364707698369,21.4228982771443,19.5588890261328,21.230962083398,23.2186533943305,22.6319590056851,18.5440601770778,19.9675456753229,24.1612399472712,27.5039923935381,17.0057227392311,12.5063376327993
-1348,Grasp,12m,Occipital,22.5371774174929,21.5139471900724,16.684537029253,19.1272196315931,37.1673387014406,15.3259136878768,11.8971323514088,6.84657058337291,21.3916198387774,19.514301382599,21.1948582133543,23.2455850616061,22.7816139670709,18.5453409011962,20.006055699234,24.1461377024116,27.4673643959023,17.0019212565746,12.5114152670332
-1346,Grasp,12m,Occipital,22.6022912790955,21.5344249111057,16.728224655537,18.9991222924091,37.2507418707913,15.3607932429162,11.9264169562881,6.86002709849245,21.3590032363221,19.46924211018,21.1549295225141,23.2711651790777,22.9305069277778,18.5483849882637,20.0577012803799,24.1279713366333,27.4269078463226,16.9998588237445,12.5179073727329
-1344,Grasp,12m,Occipital,22.6688951409713,21.5547644773833,16.7741245226709,18.8730140463672,37.3335434521703,15.3944791449189,11.9605105781005,6.87376351688511,21.3249765055145,19.4241068513853,21.1111578303013,23.2948997001404,23.0797549215824,18.5522843934027,20.1228830542797,24.1069573570645,27.3825542001975,16.9993418539756,12.5261118121725
-1342,Grasp,12m,Occipital,22.7363877482058,21.5749958519485,16.8223727641594,18.7483493822357,37.4155546578844,15.4269864948086,11.9996083525497,6.88750801096869,21.2895212833861,19.3793405989468,21.0636030641731,23.3165049916907,23.2273643218766,18.5567171112882,20.1977347132226,24.0832895068073,27.3342482058492,16.9999952816562,12.5361279386345
-1340,Grasp,12m,Occipital,22.8045119143401,21.5951805910836,16.8716935247744,18.6254146699535,37.4947818283672,15.4582987817964,12.0439519418203,6.90108926427053,21.2526821556515,19.3352746571262,21.0124094233449,23.3358451185672,23.3727238453399,18.561487302907,20.2803715211406,24.0571198280976,27.2819410359746,17.0019799092812,12.5479226656768
-1338,Grasp,12m,Occipital,22.8716196339116,21.6154262492288,16.9209005883345,18.5047029826349,37.5707082380936,15.4883110184113,12.0934650203077,6.91431569766694,21.2146389198148,19.2919803582552,20.9577883919866,23.3528578316578,23.5155438877293,18.5664711752194,20.3699419970451,24.029408968675,27.2255937273786,17.0053533519706,12.5629532884982
-1336,Grasp,12m,Occipital,22.9374764278071,21.6361203585216,16.9693812147108,18.3869786221657,37.6448609376937,15.5168531398982,12.1477995761839,6.92699123611921,21.1765123181897,19.2492719881652,20.8999154181425,23.3676174226259,23.6555784946768,18.5722768746556,20.4657330351152,23.9995791142804,27.165173801296,17.0098856325622,12.5802909899715
-1334,Grasp,12m,Occipital,23.0030181262903,21.6567198843139,17.016708703097,18.2732662009762,37.7173778968645,15.5437616838259,12.2065479154052,6.9389711380358,21.1396989831804,19.2071952002416,20.8387792241983,23.3802498616066,23.7926198303511,18.5782839413688,20.5669996515651,23.967063016645,27.1006873777814,17.0153358463598,12.5995229870364
-1332,Grasp,12m,Occipital,23.0677182264725,21.6770243443333,17.0625696913201,18.1645092267213,37.7857274305025,15.5689087290668,12.2692914311931,6.95014948825077,21.1025069237447,19.1656395630154,20.7741108223047,23.3906497765488,23.9264887724152,18.5839173656387,20.6726969162553,23.9316691937775,27.0328569573226,17.021626331073,12.6204918259394
-1330,Grasp,12m,Occipital,23.1312967891784,21.6971661060749,17.10677988876,18.0602736427642,37.8495071463832,15.5921967061132,12.3356983651916,6.96043860681585,21.0657425572515,19.1241433773923,20.7056049798394,23.3984281287203,24.0570351290923,18.589302317792,20.7816596553561,23.8932317351827,26.9632404713812,17.028858331168,12.6433017209194
-1328,Grasp,12m,Occipital,23.1936400994863,21.7175045421522,17.1492215768774,17.960901225404,37.9084145866615,15.6135511306674,12.4055168235678,6.96976544198429,21.0297136675019,19.0825314476606,20.6330952638955,23.4033112502214,24.1841228998728,18.5936992584673,20.8929885971199,23.8516324156387,26.8897012951154,17.0373573929599,12.6680196002218
-1326,Grasp,12m,Occipital,23.2546142170498,21.7395079134811,17.1897468412554,17.866906670973,37.9621980445865,15.6329102194752,12.4785065992637,6.97807047518253,20.9939375573232,19.0408126367046,20.5565202745773,23.4052532347086,24.3075816992617,18.5969584740833,21.0059793011558,23.8067865515315,26.8118737941639,17.0475569082514,12.6944007115344
-1324,Grasp,12m,Occipital,23.3144085775801,21.7632281899736,17.2282294371315,17.7790063959513,38.0107420013144,15.6502550503889,12.5544414719495,6.98531974612897,20.9591496233281,18.9991690841736,20.4758935514163,23.4044652283201,24.4272474862929,18.5990556906677,21.119401739892,23.7586724275629,26.7297264473867,17.0597262534396,12.7221598010761
-1322,Grasp,12m,Occipital,23.3733251134295,21.7872012088037,17.2645535848693,17.6962886114686,38.0540768715475,15.6660745105423,12.6331153180812,6.99150572403001,20.9251603733512,18.9580910954245,20.391273511172,23.401392709494,24.5429868220513,18.6000557338101,21.2324108577587,23.7073125902139,26.6432920440213,17.073716648493,12.7511604422465
-1320,Grasp,12m,Occipital,23.4323463141047,21.8113736564111,17.2985746944259,17.6175906904484,38.0923068857284,15.6801930741448,12.7143532660003,6.99665248451269,20.8908736063062,18.9176025273977,20.3027510908426,23.3963488504665,24.6547218547107,18.6000799266156,21.3443962976531,23.6527602855981,26.5526826953444,17.0888590990087,12.7814482607877
-1318,Grasp,12m,Occipital,23.4920344191536,21.8359012813475,17.329974562572,17.5420284769954,38.1254258406033,15.6926399040713,12.7980155723935,7.00082722578762,20.8559375034452,18.8772210240016,20.2104504160478,23.3891818877652,24.7624230830313,18.5993160163648,21.4549224686712,23.595094527643,26.4581315551358,17.1047341000552,12.8138482788459
-1316,Grasp,12m,Occipital,23.5512043023015,21.8609888295819,17.3582916073766,17.4690097596158,38.1533129128197,15.7035395665011,12.8839757132586,7.00413959543521,20.8202695132809,18.8367732647031,20.1145139285142,23.379574914343,24.8660063787671,18.5980349999128,21.5635450066118,23.5343638466036,26.3598917940213,17.1218953213503,12.8479809237224
-1314,Grasp,12m,Occipital,23.6097022072075,21.8864702818585,17.3831170781235,17.3982120957002,38.175990132061,15.7127872906992,12.9721279015391,7.00669475722248,20.783960183781,18.7962675234906,20.015107697835,23.3673107274999,24.9652949428457,18.5965727663671,21.6695842069554,23.4705763844707,26.2580338286547,17.1396957366261,12.8836967199018
-1312,Grasp,12m,Occipital,23.6678192844008,21.911973911323,17.4041618955811,17.3295229647645,38.1938724228024,15.7202896153541,13.0624460730801,7.00856076226352,20.7473757583374,18.7557907660411,19.9124696938234,23.3522892732677,25.0600820517033,18.5951086799687,21.7724456670746,23.4036956074115,26.1525790866543,17.1574989779815,12.9206872360991
-1310,Grasp,12m,Occipital,23.7245395869861,21.9373212207698,17.4211887293018,17.2628961590327,38.2074434342831,15.7260614488213,13.1553034631867,7.00979241411833,20.7108255693381,18.7154259750075,19.8078421868232,23.3345019919734,25.1501978085317,18.593658857177,21.8717381120714,23.3336651875006,26.0438415660695,17.1751252695985,12.9588796814836
-1308,Grasp,12m,Occipital,23.7790851130447,21.9625032537459,17.4339261728576,17.1982767589632,38.2167810466079,15.730197341616,13.2513338678298,7.0104302514128,20.6741426713149,18.6752128187238,19.7010158614026,23.314023070619,25.2355252082009,18.5923573509371,21.9672345259664,23.2604431558527,25.9319050577509,17.1925141596937,12.9983220524659
-1306,Grasp,12m,Occipital,23.8311086603705,21.9876345679996,17.44205986618,17.1356155923034,38.2211764758652,15.7330254021381,13.3496834315106,7.01051119663967,20.6373356042962,18.6351567564011,19.5913703366544,23.2910855308214,25.3159868349291,18.5918398165295,22.0588368565001,23.1840291482474,25.8164489278232,17.2097119619243,13.0389657296186
-1304,Grasp,12m,Occipital,23.8805288427276,22.0130310441261,17.4453135239291,17.0749114787918,38.2202830266638,15.7346924337986,13.4496441250515,7.01010735035878,20.6005299565442,18.5951961517348,19.4790378415587,23.2667566620584,25.3915470334027,18.5925758837767,22.1465860390719,23.1044837139322,25.6974055717467,17.2268362377986,13.0815359152601
-1302,Grasp,12m,Occipital,23.9276415536399,22.0396039491626,17.4434962589116,17.0162843442006,38.2139233619585,15.7348755273912,13.5509313934275,7.00938412986025,20.5639012162224,18.5551389994555,19.3641885300122,23.2405237368319,25.4621887506414,18.5946163936641,22.2306751347055,23.0219183474612,25.5748106002927,17.2437847356993,13.1263227767954
-1300,Grasp,12m,Occipital,23.9723418041133,22.0674675621677,17.4365442510616,16.9601034186184,38.2020083959308,15.7334304620928,13.6533039838508,7.00885844295684,20.5279449025255,18.5147639461986,19.2470197382725,23.2126713614669,25.5279362036063,18.5979739159866,22.3108734576195,22.9365223379316,25.4485359423769,17.2604260925308,13.1723364614442
-1298,Grasp,12m,Occipital,24.0142450315484,22.0967962745996,17.4245120440406,16.907125672274,38.1845504975228,15.7303884137808,13.7564391350191,7.00873902928245,20.4931998593249,18.4739157128908,19.1277498271884,23.1839128070891,25.5888419231569,18.6018521613154,22.3870254878555,22.8485566106042,25.3183631457321,17.2769315112477,13.219611635812
-1296,Grasp,12m,Occipital,24.0532938383031,22.1277628005517,17.4075746949654,16.8586223653026,38.1616704888416,15.7261610849707,13.8599473981536,7.0087367316755,20.4596969328861,18.4325240237798,19.006616250883,23.1544340785496,25.645004495745,18.6064924189733,22.4590529418495,22.7583993300506,25.1842440110407,17.2934072494523,13.268107930232
-1294,Grasp,12m,Occipital,24.0895056071363,22.1601096155201,17.3860285684419,16.8158529864207,38.1336030028598,15.7216882480087,13.963432754254,7.00906906145086,20.4265124355994,18.3905631565357,18.8838595748057,23.1240365699839,25.6965741399644,18.6112250401359,22.5267228198985,22.6669302837708,25.0467181752839,17.3095302588355,13.3177052868531
-1292,Grasp,12m,Occipital,24.1228774957607,22.1937115516006,17.3603169563897,16.7782373876957,38.1010737748623,15.7160164641529,14.0665360630997,7.00991891657908,20.3931618198945,18.3480386395944,18.7597060889153,23.0930739829883,25.7437805939678,18.6163718645316,22.5894540196684,22.5773241598831,24.9049698988154,17.3253494937166,13.3683005442165
-1290,Grasp,12m,Occipital,24.1534218292087,22.2290199531023,17.3310618203936,16.7452129232122,38.0654360821801,15.7089683130597,14.1689352144306,7.01163897436731,20.3595973346685,18.3049961584558,18.6343466876954,23.0613330647857,25.7869330333907,18.6231250948005,22.6467190385957,22.4885174965528,24.7590087064914,17.3413841996721,13.4198430172849
-1288,Grasp,12m,Occipital,24.1811413621054,22.2659436437896,17.2991104116367,16.7171369193499,38.025904550957,15.7009577654372,14.270348115283,7.01451122108951,20.3259510064266,18.261547773027,18.5079584683794,23.0286703655499,25.826394418569,18.6307555152127,22.6983200144172,22.4009904860635,24.6088947001822,17.358055291924,13.4722029757392
-1286,Grasp,12m,Occipital,24.2058756952726,22.3039396177437,17.2674718916361,16.6951273112772,37.9826714969765,15.6922404205736,14.3705219114682,7.01867542421758,20.2922829375131,18.2178962032558,18.3814564251687,22.995973040425,25.8624599962582,18.6383877381799,22.7440632468932,22.3155746210322,24.454681206544,17.3752103785452,13.5263081028859
-1284,Grasp,12m,Occipital,24.2273870903377,22.342889928976,17.2357659493624,16.6806836784428,37.9361976246023,15.682054822416,14.4692343657612,7.02360781140888,20.2598936724616,18.1743784682032,18.2549458651144,22.9628201759635,25.8952499493175,18.6457612016587,22.7835472660923,22.2335674098549,24.2964534884167,17.3927091960128,13.5814862522639
-1282,Grasp,12m,Occipital,24.2455790338981,22.3829360534056,17.2022601765632,16.6734728384713,37.8869997036293,15.6704230222872,14.5662850290188,7.02914564959527,20.2310250248774,18.1316221590475,18.1276985791972,22.9298828962814,25.9248995055616,18.652687258382,22.8164903654285,22.1554146681469,24.1343469303946,17.4105352711236,13.6374120466122
-1280,Grasp,12m,Occipital,24.2605155843744,22.4247007319204,17.1668848353252,16.6729326417912,37.8356683213292,15.6574222353851,14.6615027067226,7.03525634555637,20.20284243238,18.0918971595639,17.9998051504816,22.8979834253797,25.9519304111364,18.6592869392297,22.8431858763138,22.0787524479654,23.9685546408766,17.4284087540005,13.6930649978675
-1278,Grasp,12m,Occipital,24.2723326833103,22.4689485831525,17.1297644185283,16.6775869854128,37.7827340055257,15.643144335819,14.7547403110756,7.04193777273264,20.1744476291763,18.0541022313884,17.87141814516,22.8666742344909,25.9769303325546,18.6655246999309,22.8639357758228,22.0028074035336,23.7993218974966,17.4459135533428,13.7481162791926
-1276,Grasp,12m,Occipital,24.2811100436479,22.5146992720527,17.0911746960876,16.6870309697683,37.7285393101434,15.6276222913195,14.8458806791133,7.04932976530027,20.1459491316013,18.0177351548217,17.7427360513349,22.8357229434421,25.9998209385186,18.6708759932182,22.8782727988087,21.9274976509922,23.6269416960587,17.4626860405363,13.8023097823049
-1274,Grasp,12m,Occipital,24.2868651995987,22.5615436050192,17.0515530450056,16.70156280499,37.6735491096604,15.6107482190307,14.9348384986744,7.05757916168728,20.117581453491,17.9829412924949,17.614004234748,22.805659489065,26.0207015385037,18.6756937608139,22.886542672363,21.853278807053,23.4517621192646,17.4784413428601,13.8554378271057
-1272,Grasp,12m,Occipital,24.2896653751843,22.6092421299509,17.0116281962388,16.7206063818295,37.6189663714267,15.5923207034165,15.0215621626524,7.06668377191281,20.089432091536,17.9495227296828,17.4854927422407,22.7764099218981,26.0399182646977,18.6794017707432,22.8893405621784,21.7841882582813,23.2741824312174,17.4930181314948,13.9073441167831
-1270,Grasp,12m,Occipital,24.2902104978997,22.6576787515466,16.9725914181472,16.7424276231536,37.5642865300645,15.5721779302251,15.1060465892568,7.07633831315876,20.0614446550785,17.9166996676515,17.3574373207767,22.7477980952957,26.0577176230319,18.6815508454999,22.88798905678,21.7191127847043,23.094675750696,17.5064291302429,13.9579322117156
-1268,Grasp,12m,Occipital,24.2899997065768,22.7071607167353,16.935288172692,16.766165396758,37.5100141372629,15.5502328000813,15.1883206813592,7.08619600134182,20.0335252242106,17.8840831709723,17.2299498357828,22.7201581084558,26.0741002392817,18.682784656607,22.8811444097407,21.6553565853963,22.9137822943009,17.5189372219758,14.0071238331004
-1266,Grasp,12m,Occipital,24.2881791279287,22.757810574017,16.8999736730597,16.7913271194477,37.4568563776826,15.5264684676572,15.2683866166958,7.09630401381562,20.005453274485,17.8511819156839,17.1030256534365,22.6935631214817,26.0889855787889,18.6824980077356,22.8684326172568,21.594984018567,22.7320888908375,17.5311056549881,14.0547080281702
-1264,Grasp,12m,Occipital,24.2846013925225,22.8089675220086,16.8679742112006,16.817616412175,37.4055950931843,15.500928006489,15.3461122872943,7.10678454502705,19.9769246261589,17.8176459046766,16.9766356708299,22.6682185540737,26.1023893996403,18.6805563063671,22.8499416001621,21.5370334805003,22.5501660527454,17.542695610107,14.1003498064173
-1262,Grasp,12m,Occipital,24.279544544185,22.8602978877234,16.8403634095304,16.8448771369069,37.3568948957102,15.4737117927502,15.4212339737278,7.11783823613655,19.9476481572741,17.7833560041514,16.8507804789068,22.6445199021608,26.1144394722667,18.6771840738987,22.8260709055744,21.4806157817868,22.3684846976493,17.5534415696511,14.1437527469597
-1260,Grasp,12m,Occipital,24.2734327567548,22.911638865691,16.8161351050929,16.8730087832659,37.3111861509794,15.4450155300249,15.4934986048246,7.12952964320036,19.9173974098203,17.7482253181342,16.7255140813033,22.6229113214803,26.1258750564249,18.6735263460391,22.7979574333764,21.4260344802104,22.1874898924331,17.5634692385379,14.1846883316423
-1258,Grasp,12m,Occipital,24.2656405411626,22.9629195762203,16.7950744464318,16.9018847142289,37.2686220504633,15.4152140518207,15.5627257082782,7.14173662908054,19.8860009945473,17.711912062744,16.6009357980317,22.6036146191415,26.1427209904219,18.6707288046724,22.7654889273984,21.3736559565501,22.0078893927411,17.5723533317674,14.2229808895439
-1256,Grasp,12m,Occipital,24.2559018950855,23.0141588735869,16.780113800956,16.9313095182447,37.2293253253729,15.3850100443238,15.6288102386741,7.15435677379288,19.8533396729129,17.6741934062444,16.4772017229859,22.5864917490625,26.1598054059661,18.6674993101603,22.7281653444974,21.3237829572038,21.8310094267084,17.5800440336731,14.2585029894656
-1254,Grasp,12m,Occipital,24.2442707455887,23.06540036259,16.7700445914312,16.9610309630724,37.1937765756091,15.3552662330851,15.6916903312049,7.16690680336833,19.8193201612455,17.6351030401936,16.3545386699329,22.5712529724091,26.1761695361912,18.6635925409292,22.6861382304882,21.2765623660295,21.6572580265743,17.5865792179487,14.2911574662866
-1252,Grasp,12m,Occipital,24.2309035185369,23.1166788564611,16.7635772422528,16.9908891708463,37.1614624419194,15.3252580068494,15.7513556108779,7.17909752663839,19.7838875426197,17.5949816884567,16.2333965319227,22.5577889641552,26.1915166709284,18.6590509736023,22.6397075914229,21.2320852375597,21.4860312098217,17.5921099321459,14.3208866909564
-1250,Grasp,12m,Occipital,24.2158926087382,23.1680308677462,16.7601156913215,17.0210686598306,37.1322855280304,15.2961041977663,15.8078297767981,7.19081824409623,19.7470125144074,17.5533604462908,16.1143545504965,22.5456913558911,26.2058955601184,18.6543443007352,22.5891407803228,21.1904719565208,21.3172531356523,17.5969441373982,14.3476637431632
-1248,Grasp,12m,Occipital,24.1992878585349,23.2195891374279,16.7592396102346,17.0520843007609,37.1065291103628,15.2663384981198,15.8611927821181,7.20203837848253,19.7086944231546,17.5103331767186,15.9972528034411,22.5350507301175,26.2193286972489,18.6513636893861,22.5346799066642,21.1519484219093,21.1512096400809,17.6011791737093,14.371482843089
-1246,Grasp,12m,Occipital,24.1811930758541,23.2716346297144,16.7609542771296,17.083269558732,37.0841368897867,15.2360124897251,15.9119583577828,7.21275394152035,19.668972600573,17.4661970511081,15.8817719081602,22.5263558251802,26.2320677443848,18.6494636782586,22.4770686145074,21.1169566955352,20.98852741687,17.6045344331985,14.3923293925181
-1244,Grasp,12m,Occipital,24.161749122106,23.3243696724785,16.7658870826024,17.1139907374742,37.0652915872193,15.2054054119485,15.961615159913,7.22296393211887,19.6279403147119,17.4211258500867,15.7677340615974,22.5184132094028,26.2447537703007,18.6479392818128,22.4173303419244,21.0863946552146,20.830416533053,17.6072429432612,14.4101516522671
-1242,Grasp,12m,Occipital,24.140991760518,23.3778555793874,16.7752151833644,17.1441539048913,37.0504220400732,15.1758653215593,16.0088298143501,7.2330316173711,19.5857663549087,17.3749108385492,15.654954833213,22.5109562066254,26.256668134994,18.6466470732194,22.3555773764937,21.0617031105669,20.6779314097339,17.6088328730581,14.4248981080165
-1240,Grasp,12m,Occipital,24.1190147223988,23.4322414405915,16.7884046477994,17.1739911553524,37.0399312303429,15.146526689158,16.053504786997,7.24312194789947,19.5426187012184,17.3275144404651,15.5432472237385,22.5037474702505,26.2670682107807,18.6454040026533,22.2920779001807,21.0435812430001,20.5313680057637,17.6090753136192,14.4365543542655
-1238,Grasp,12m,Occipital,24.0955194076778,23.4879858671186,16.8044837829195,17.2037256462998,37.033462085333,15.1171590367757,16.0959018623063,7.25269416144932,19.4985459002895,17.2790498219413,15.432442145195,22.4970313184392,26.2756966616708,18.6441824615441,22.2265228941662,21.0318224856922,20.3915101601825,17.608071935966,14.4451435851434
-1236,Grasp,12m,Occipital,24.0702018209319,23.5460179949673,16.8228883679217,17.233509539368,37.0302889062909,15.0879643532524,16.1363929385566,7.2617373551351,19.4536182294457,17.2297594269304,15.3224022524037,22.4908429159313,26.2824716003397,18.6432074418097,22.1584817141489,21.0274810386823,20.2592028153502,17.6061374151476,14.450730746764
-1234,Grasp,12m,Occipital,24.0431066701329,23.6060098319513,16.8430026480321,17.2630181794841,37.0298660253305,15.0597699078872,16.1754476612209,7.27027699612173,19.40802099428,17.1800926658158,15.2130088810968,22.4853985799867,26.2874456505961,18.6427043024946,22.0875980347708,21.0313078417506,20.1347839756943,17.6036406877489,14.4534183012423
-1232,Grasp,12m,Occipital,24.0141176540381,23.6673517839153,16.8642091862025,17.2920471132405,37.0317420328843,15.0328998535588,16.2136254178647,7.27836988640745,19.3620409551022,17.1306603487956,15.1041712463245,22.4809999000707,26.291091200489,18.6426186572986,22.0137019418744,21.042175815065,20.0178470623876,17.6003849003052,14.4533530225804
-1230,Grasp,12m,Occipital,23.9832087574184,23.7287899053643,16.8859911708058,17.3213417534889,37.0356641480454,15.0082478757001,16.2514574941338,7.28609150132212,19.3160113694742,17.0813486882608,14.9958194859089,22.4768961060487,26.2943726184572,18.6427566030411,21.9364665217145,21.060469377689,19.9080926593504,17.5964634398516,14.4506994152957
-1228,Grasp,12m,Occipital,23.950736332274,23.7897953099069,16.9079717932326,17.3536084326386,37.0418788877377,14.9864665480935,16.2891903711975,7.29354453804795,19.270325007905,17.0321235505943,14.887932855553,22.4728709660527,26.2965218813974,18.6431201031178,21.8570764852405,21.0874823674573,19.8075635640277,17.5920827990729,14.445615998287
-1226,Grasp,12m,Occipital,23.9173103237993,23.8501075530909,16.9298821258787,17.3850657964486,37.0512952932476,14.9661151999876,16.3266601765585,7.30087396386568,19.2251449577425,16.9832815658969,14.7805386091573,22.4691551887231,26.2968187913191,18.6445030632675,21.7743970817052,21.1230477367401,19.7159938202493,17.5871841948254,14.4382478938586
-1224,Grasp,12m,Occipital,23.8824471362115,23.9096529036966,16.9515584404524,17.4156937017662,37.064410448645,14.9469801717572,16.3636056714124,7.308200084398,19.1802177760314,16.9353883220769,14.6737363175606,22.4661735580425,26.2951736918348,18.6467808234434,21.6885867891376,21.1666974679308,19.6335350800304,17.5816040609377,14.4288303235406
-1222,Grasp,12m,Occipital,23.8459319090454,23.9689025608958,16.9729335673771,17.4453049679296,37.0802064444888,14.9290327257686,16.3999012391625,7.31558749627529,19.1352023357426,16.8894364214822,14.5677079370532,22.4637769421743,26.29184968766,18.6494827282978,21.6000206613807,21.219314511389,19.56139796904,17.5751737978252,14.417892455012
-1220,Grasp,12m,Occipital,23.8078512963145,24.0277878746483,16.9940007006025,17.4736924211644,37.0979580031249,14.9122709577291,16.4355529324395,7.32316008721672,19.0898514390465,16.8457347656735,14.4627001854992,22.4618661912758,26.2869415522312,18.6527841725206,21.5087799926011,21.2801263181546,19.4990693837125,17.567762197318,14.4056340652656
-1218,Grasp,12m,Occipital,23.7689331979062,24.0876848525341,17.0147017209698,17.5007621035001,37.1172959726405,14.8975139966944,16.4706447454406,7.33121264968778,19.0439824785068,16.8040792003011,14.3589905550189,22.460519763981,26.2801699728183,18.6571755255091,21.4148017279198,21.3457481362724,19.445791584871,17.5593136321915,14.3919487036848
-1216,Grasp,12m,Occipital,23.7289131845158,24.1479801302359,17.0348634461317,17.526513546207,37.1383688470221,14.8847505215955,16.5053458034343,7.33987700610212,18.9974665287214,16.7644689548117,14.2569554246166,22.460089543727,26.2715740056718,18.6635427126635,21.3180098861706,21.4151370841476,19.401589260342,17.5499144551907,14.3769734010708
-1214,Grasp,12m,Occipital,23.6871112944622,24.2076419813177,17.0542742962297,17.5509458671555,37.1612820432118,14.8737244490208,16.5398185619094,7.34908651597446,18.9502507993092,16.7272270295853,14.1582666699252,22.4611614786848,26.2616934959176,18.6716929631683,21.2184715892452,21.4879394197278,19.3677188723798,17.5398419672269,14.3609927133098
-1212,Grasp,12m,Occipital,23.6439094845227,24.2667151435253,17.0728056842535,17.5739857571873,37.1851063023864,14.8639966862989,16.5739949838182,7.35929416152189,18.9023708687235,16.6927585836521,14.062946681476,22.4637038087094,26.2516328562796,18.6821752188412,21.1164008500685,21.5642602554416,19.3443327496886,17.5292095701102,14.3445984621924
-1210,Grasp,12m,Occipital,23.601026074555,24.3244806396204,17.0905002822589,17.5954985776547,37.2092966221812,14.8551782287965,16.6076395296634,7.37030001213571,18.8538710523056,16.6613617493535,13.9701548337172,22.4682954434487,26.2404593219609,18.696212215721,21.0121410918268,21.6446194600119,19.330097102768,17.5181394647021,14.3286359274276
-1208,Grasp,12m,Occipital,23.5579889079794,24.3805067838028,17.1076448858412,17.61537844407,37.2339709014357,14.8472621453056,16.6405775473549,7.38216641804725,18.8054234151507,16.6332556903691,13.8801718118483,22.4746218486167,26.2278153725684,18.7130117848431,20.9066493812552,21.7296421801881,19.3250744542192,17.5069612497525,14.313875243437
-1206,Grasp,12m,Occipital,23.5145594123172,24.4346807360029,17.124350038506,17.6336328420407,37.2597398193054,14.8400045798548,16.6727511927794,7.3949027993885,18.7574995837,16.6087392459556,13.7930715981475,22.4823826283318,26.2136799500423,18.732002869752,20.8003516193764,21.8193294122856,19.3280452702365,17.4959361436441,14.3010469673507
-1204,Grasp,12m,Occipital,23.4709562590018,24.4870433100389,17.1411670586477,17.6504171976714,37.2863429425288,14.8327948076453,16.7041935143512,7.4080172656341,18.7087352466924,16.5888586413734,13.7086133009457,22.4927151262098,26.1980866498328,18.7538922780106,20.6938519419048,21.912951329291,19.3382563262228,17.4851509700881,14.2884410727905
-1202,Grasp,12m,Occipital,23.4266697855206,24.5377906144223,17.1593995327678,17.6660535530814,37.3127891482487,14.8253083279895,16.7350099572196,7.4213990558097,18.659062574512,16.5726398472134,13.6267935354262,22.505346163503,26.1810286972389,18.7786890708649,20.5880660454443,22.0099845529938,19.3548617445281,17.4747992113596,14.2758221456088
-1200,Grasp,12m,Occipital,23.3810770334276,24.5872773344764,17.176209202099,17.6810220451365,37.3380032628494,14.8174064524827,16.7653829926311,7.43461388453224,18.6082895107543,16.5595792904676,13.5485540531686,22.520522423458,26.1624942310071,18.8054018114388,20.4829748105947,22.1103858638171,19.3775051210363,17.4651553531252,14.2632586222101
-1198,Grasp,12m,Occipital,23.3338355039575,24.6358533807554,17.1914924576244,17.6958831049006,37.3614446512141,14.809054874648,16.7956075108866,7.44748239597187,18.5561839074836,16.5495359914805,13.4731723060973,22.5393646036432,26.1425709777368,18.8338844152208,20.3788627650725,22.2140795816814,19.4061508331262,17.4563700583252,14.2508453936527
-1196,Grasp,12m,Occipital,23.2849141352977,24.6835345400279,17.2053404773493,17.7110382596461,37.3829921312552,14.8002423981808,16.8261442926407,7.45983075170893,18.502688848489,16.5424282693542,13.3991239889147,22.5614287277117,26.1215310440598,18.8640780307539,20.2765219943597,22.320451722218,19.4406983588482,17.4485005865648,14.2386839544179
-1194,Grasp,12m,Occipital,23.2345797789679,24.7298553306818,17.2179547134075,17.7264890248382,37.4027746522057,14.7908815919451,16.8573340855754,7.47195242854857,18.4478677669741,16.5383063670831,13.3258764031963,22.586549761059,26.1001141295752,18.8956422500685,20.1760858266731,22.4285037638978,19.4806003582964,17.4416849653788,14.2268274814409
-1192,Grasp,12m,Occipital,23.1829585232112,24.7743401444002,17.2296696839472,17.7419452154044,37.4208597492531,14.7808937112896,16.8888564857629,7.48370026753387,18.3915135241655,16.537442452137,13.2532762899486,22.6145184926569,26.0796091318638,18.9285114941219,20.0766995004144,22.5373243757185,19.5251428783812,17.4363527557409,14.2152523707769
-1190,Grasp,12m,Occipital,23.130223178187,24.8167508613286,17.2410135555512,17.7571692690175,37.4370987261114,14.7702850141839,16.9201813046631,7.49451074369132,18.3333722468709,16.5402892391262,13.1813618447822,22.6454985543559,26.0593583138402,18.9627811748544,19.9779779284887,22.6462692655621,19.5736835023567,17.4326063169677,14.2039443032372
-1188,Grasp,12m,Occipital,23.0767979150471,24.8570061198547,17.2521529928033,17.7723485911983,37.4512862116478,14.759083729659,16.9509950931132,7.50423860280032,18.2733631023772,16.5471536562606,13.1103460471733,22.6794092919102,26.039182401906,18.9981732423089,19.8796792132998,22.7549665200736,19.6256852320541,17.4303233603576,14.1932481136637
-1186,Grasp,12m,Occipital,23.0227662482684,24.895093502623,17.2622090191821,17.788124076487,37.4637022761076,14.7472071358933,16.9811414990093,7.51276150382616,18.2115302995302,16.558140584308,13.0407105879583,22.7155486655934,26.0187326884358,19.0341985838302,19.781685480472,22.8633153011258,19.6807269618794,17.4287709521523,14.1841476530984
-1184,Grasp,12m,Occipital,22.9681432188384,24.9310080977235,17.270096035964,17.8041015930312,37.4751150379202,14.7344371693979,17.0105543972489,7.52036745992178,18.1480923955168,16.574853765878,12.9735657528299,22.7534093768319,25.9981147489195,19.0702237418836,19.6839701170272,22.971652890497,19.7385199982163,17.4275776387161,14.1756604139397
-1182,Grasp,12m,Occipital,22.9126530860557,24.9647584029809,17.2751649663121,17.8199061268499,37.4848880087011,14.7205073794374,17.0392285821,7.52664018255984,18.0840017408394,16.5969056129217,12.9107423226663,22.7928437805256,25.9775622731889,19.1059591532857,19.5865743852956,23.0807466877866,19.7997262747485,17.4268129670358,14.1677704278147
-1180,Grasp,12m,Occipital,22.8564065469424,24.9964290313318,17.2770464999106,17.8359848081068,37.4937308226844,14.7051902966826,17.067216496211,7.53133283985444,18.0189319495975,16.6228343332867,12.8522524547477,22.8339601317819,25.9580330592849,19.14125855619,19.4896009492377,23.1902390108705,19.8651400621835,17.426712934995,14.1606934545247
-1178,Grasp,12m,Occipital,22.7996257484434,25.0262465127906,17.2755085379051,17.8517984939243,37.5011065161762,14.6883638717708,17.09464421156,7.53429074830321,17.9527353310781,16.6519170336219,12.7974747228093,22.8770525400015,25.9403741131256,19.1759292962046,19.3931849277306,23.2988855769428,19.9325381925889,17.4276766242795,14.1547077133366
-1176,Grasp,12m,Occipital,22.7421855512236,25.0546496347657,17.2704047999796,17.867036237788,37.5070110368132,14.6707576553339,17.1217628752723,7.5353469600941,17.8853122123301,16.6838006366234,12.7464312179371,22.9220252817924,25.9228855029947,19.2097651892387,19.2974439459613,23.4059385775468,20.0022597001682,17.4300683528888,14.1499392283408
-1174,Grasp,12m,Occipital,22.6847592316681,25.0828928439837,17.2616499523678,17.8831898691899,37.5110800393058,14.6523400810887,17.1490692167853,7.53441024695905,17.8165639348221,16.71821486295,12.6989983264164,22.9688736784665,25.9051305198144,19.2426427076343,19.2025248041392,23.5110019391701,20.0732732723749,17.4342485877388,14.1464201069742
-1172,Grasp,12m,Occipital,22.6288309677835,25.112230459821,17.2492214407593,17.9022907623321,37.5130519873609,14.6321080379416,17.177314463841,7.53143958293555,17.7464306175434,16.7549442918769,12.6547963946406,23.017498384242,25.8869647371942,19.274596508337,19.1086640443584,23.6138686038908,20.1453374943395,17.4406640349055,14.1440797894244
-1170,Grasp,12m,Occipital,22.5736687006106,25.1404465668123,17.2331358277777,17.9212845126869,37.5128486012216,14.6099394200096,17.2067874570653,7.52642175749629,17.6748743579151,16.7938224086096,12.6135297703324,23.0681964326609,25.8683370430163,19.3055909630676,19.0161751077325,23.7145057904466,20.218297683365,17.4496175657564,14.1427291571392
-1168,Grasp,12m,Occipital,22.518765828684,25.1671931546906,17.2134544715035,17.9397696088019,37.5098121857211,14.5858151149202,17.2371928420609,7.51936939893863,17.601893440253,16.8347562685971,12.57551360323,23.1203919488497,25.8492642389074,19.3352572793744,18.9261867402658,23.8134798837599,20.2911375395488,17.4612976573181,14.1422330741347
-1166,Grasp,12m,Occipital,22.4640363130745,25.1923209649683,17.1902715237655,17.9578186411563,37.5035083973872,14.5597658585004,17.2685176036475,7.51031440634451,17.5275180575393,16.8777319432978,12.5403357683272,23.1734327908545,25.8298146960846,19.3632329343793,18.8386962670135,23.9133777524063,20.3632782731623,17.4761610114436,14.1425111556831
-1164,Grasp,12m,Occipital,22.4096108103237,25.2162307706999,17.1637253025896,17.9755283708442,37.4938239422589,14.5318957094829,17.3011263470395,7.49931328649876,17.4518256499892,16.9229243711667,12.5069899457006,23.2270519913167,25.8101186246965,19.3890454325327,18.7534985598026,24.014612099382,20.4342574979194,17.4946518605927,14.143529393906
-1162,Grasp,12m,Occipital,22.3558274719143,25.2396422104577,17.1340101048644,17.9929529704053,37.4802528599522,14.5024755107772,17.3355810774335,7.48645112926681,17.3749336604555,16.9706418256054,12.4751461263871,23.2809634023721,25.7903583915588,19.4123939796293,18.6712628798526,24.1131656157421,20.503611830015,17.5173080012887,14.1452966179392
-1160,Grasp,12m,Occipital,22.3029738981342,25.2622828297702,17.1014157923624,18.0100784681076,37.4622502966962,14.472375392431,17.3694781572885,7.47186744676149,17.2969972918079,17.0202352221595,12.4447702682102,23.3350234968485,25.7708239555436,19.4331346958432,18.5924067284638,24.2085612847518,20.5708610237142,17.5439264885427,14.1478667253012
-1158,Grasp,12m,Occipital,22.2518676762267,25.2841784915834,17.0664848671453,18.0257384775367,37.4395697043945,14.4422179599505,17.401948985333,7.45587419631919,17.2181951142003,17.0712080251559,12.4159547220049,23.3893144532722,25.7520030194588,19.4512043719363,18.5167126682849,24.3005685640225,20.6355310059934,17.5741256906467,14.1513355203018
-1156,Grasp,12m,Occipital,22.2040646484741,25.3046909149061,17.0309812014316,18.039231745902,37.4121249948042,14.412068441788,17.4325426374687,7.43900414299452,17.1387389108631,17.1233334643481,12.3888846868115,23.4440578717503,25.7340978119873,19.4666345701597,18.4439596007148,24.3890509816874,20.6972274448377,17.6077038423359,14.1558768704018
-1154,Grasp,12m,Occipital,22.1591591612322,25.3238957261827,16.9958344577528,18.0502589661847,37.3797810280779,14.3821303612647,17.4609034838796,7.42116621784116,17.0588658097719,17.1764755341763,12.3638121260461,23.498630521279,25.716879073044,19.4795478094544,18.3737029606422,24.4739119934566,20.7556382848797,17.6448387624558,14.1618083278142
-1152,Grasp,12m,Occipital,22.116639889016,25.3421049677057,16.9593761419445,18.058629840068,37.3423917447707,14.3522167864616,17.4867309351901,7.4021847942771,16.9788470363717,17.2306414183465,12.3410565374495,23.5527830540285,25.7001452914861,19.4901945566244,18.3057861782005,24.5550963845116,20.8105236427658,17.686568176149,14.1697033852005
-1150,Grasp,12m,Occipital,22.0772948646902,25.3593404072154,16.9212236806699,18.0640561170797,37.2999790318027,14.3221016969003,17.5097640856022,7.38215775566209,16.8990557198091,17.2861647445793,12.3210162890945,23.6064205318099,25.6836377027536,19.4991327173734,18.2400674533034,24.6326034733189,20.8617069880947,17.731610570489,14.1802278734093
-1148,Grasp,12m,Occipital,22.040476307709,25.3753366266339,16.881497961287,18.0662572277959,37.2529318845517,14.2919415006474,17.5297721802456,7.36124007083946,16.8209167161237,17.3433158827336,12.3041777782125,23.6593419825402,25.6669310157673,19.5074487735216,18.1763709684825,24.7064880311696,20.9090563741355,17.7792664221533,14.1927925762289
-1146,Grasp,12m,Occipital,22.0070504338553,25.3898253065597,16.8405694180317,18.065444652861,37.2019350654737,14.2620905098105,17.5465454347162,7.33998532539877,16.743866404922,17.4016640418296,12.2910790073872,23.7114777209631,25.6494526404641,19.5152049684682,18.1145088688159,24.7768724360566,20.9524682017559,17.8292462973837,14.2070155869809
-1144,Grasp,12m,Occipital,21.9769256977654,25.4026689324695,16.7990349206345,18.0618894953358,37.1471178554123,14.2330420492721,17.5599056240143,7.31799841747415,16.6679074507856,17.4609136294112,12.2822245186389,23.7628337925,25.6307246239335,19.5224501239157,18.0543742512351,24.8440168520258,20.9918888157114,17.8813860286538,14.2227351527992
-1142,Grasp,12m,Occipital,21.9492667728402,25.4138993525195,16.7573821857247,18.0548666003694,37.0882746861932,14.2053332394013,17.5696938388154,7.29527678996713,16.593343432044,17.5211056287616,12.2779970548543,23.8136102559788,25.6103755679754,19.5294460865589,17.9959208486116,24.9084550597929,21.0273178692014,17.9355812144345,14.2398139773624
-1140,Grasp,12m,Occipital,21.9237433771514,25.4237593266514,16.7157090985657,18.0443700784838,37.0261432334369,14.1794258570121,17.5757782993102,7.2718368573936,16.5205676260615,17.5827380823702,12.278702208023,23.8652014222669,25.5880850731531,19.536020329336,17.9391440231609,24.971020161617,21.0588620482553,17.9917711057086,14.2581398504953
-1138,Grasp,12m,Occipital,21.9003000538417,25.4326599993996,16.6741401173144,18.0304615303348,36.9606354591997,14.1554156227536,17.5780467289968,7.24766823598083,16.4500322447779,17.6460809488501,12.2845902921917,23.9164359729809,25.563508093768,19.542150925457,17.8840909108217,25.0320703678186,21.0867485884602,18.0499193633031,14.2776535068622
-1136,Grasp,12m,Occipital,21.8789929461532,25.4408499026273,16.6330183452998,18.0132503965284,36.8919726817854,14.1335619166838,17.5764207954104,7.22279048053184,16.382260011557,17.7106377807866,12.2956712918468,23.9678494514991,25.5363213855504,19.5482028089864,17.8314415836123,25.0914151088033,21.1111171373092,18.1101130829913,14.2983624896313
-1134,Grasp,12m,Occipital,21.8598522536973,25.4481690118388,16.5925843120857,17.9928624135974,36.8202555262414,14.1152325534254,17.5708509620011,7.19725236499753,16.3178677931484,17.7763352079634,12.3114966051582,24.0193764035331,25.506232893116,19.5538092260572,17.7806392712638,25.1485016075915,21.1318240030098,18.1724041313169,14.320321557601
-1132,Grasp,12m,Occipital,21.8432804201145,25.4545014842135,16.5527924445303,17.9694568888009,36.7448415975768,14.0999208377169,17.5637854228921,7.17112617958645,16.2579111253524,17.8429944621574,12.3313759815937,24.0695277351455,25.473020398982,19.5586109912329,17.7312702172509,25.2025764043337,21.1487249539484,18.2365981310526,14.3436806934338
-1130,Grasp,12m,Occipital,21.829792900217,25.4602327636927,16.5135802528368,17.9432153075713,36.666009481759,14.0871444269393,17.553032526169,7.14448785228254,16.2046775840933,17.9103998359459,12.3546718408487,24.1179760390164,25.4365138909516,19.5637980579916,17.6832106218058,25.2530334843064,21.162170932058,18.3023685960498,14.3687630219127
-1128,Grasp,12m,Occipital,21.8191572327555,25.4659218368628,16.475041156441,17.9143368254328,36.5843672296263,14.0767460386778,17.5383453943822,7.11742212403745,16.1597151099296,17.9783394081098,12.3808845246639,24.164724276277,25.396616528232,19.5696264528496,17.6377060538427,25.2995196132523,21.1742492460259,18.3689935855027,14.3961277324621
-1126,Grasp,12m,Occipital,21.8114012429605,25.4722484806472,16.4374965321421,17.8830420922133,36.5003901935478,14.0687088949961,17.5197432272311,7.09005516684284,16.1235859702932,18.04657011022,12.409629166128,24.2104269430628,25.3533015892144,19.5746205183199,17.5938046735737,25.3419240771842,21.1824935345392,18.4361095977886,14.4258089137529
-1124,Grasp,12m,Occipital,21.8067925905944,25.4785752720941,16.40230976918,17.84956237619,36.4138184428351,14.0632679328539,17.4972658785705,7.062582875522,16.0958229464368,18.1148222849826,12.4405959567032,24.254551287914,25.306468609396,19.5783485560034,17.5511004088254,25.380368416906,21.1867683576594,18.5035859845395,14.4578051819739
-1122,Grasp,12m,Occipital,21.8052855334955,25.485167159169,16.3699507057726,17.8141349582081,36.3243237000345,14.060860202567,17.4709773270718,7.03511136341962,16.0750840827655,18.182784807079,12.4735239894851,24.2970041122235,25.2558962540513,19.5808426933402,17.5097515570952,25.4152087422054,21.1870715576209,18.5713597565034,14.4915635237911
-1120,Grasp,12m,Occipital,21.8073901188625,25.4925641760218,16.3391961495635,17.7770184100683,36.2320105787188,14.0614441017172,17.4409763228677,7.0076949182685,16.0606643311328,18.2501280895771,12.508185757673,24.3376907038011,25.2014046608499,19.5823086507964,17.4701031508551,25.4468994463825,21.1834621363434,18.6394090922242,14.5266221510797
-1118,Grasp,12m,Occipital,21.8145475161471,25.5010300184024,16.3099945328774,17.7384816634732,36.1372285779762,14.064517688142,17.4073944731571,6.98067556266125,16.0525844589585,18.3165509188903,12.5443682755643,24.376420674206,25.1428815197974,19.5824744639767,17.4328728569855,25.4755604017768,21.1760215848671,18.7077226743019,14.562718550073
-1116,Grasp,12m,Occipital,21.8263692256173,25.5105384144217,16.2827049940392,17.6988258208389,36.0405372683263,14.0699544260502,17.370416444253,6.95492073813904,16.0501520562362,18.3818261721592,12.5818788378192,24.413087274537,25.0802714174396,19.5815628126063,17.3991423542461,25.500925413897,21.1648003923248,18.7763457670127,14.5996550178979
-1114,Grasp,12m,Occipital,21.8430450709588,25.520963721105,16.2580222751005,17.6583697908919,35.9426926430021,14.077528286474,17.330284452883,6.93020102236089,16.0529686063341,18.4457995917156,12.6205340132523,24.4476842537878,25.0135356783109,19.5798431750427,17.369401588079,25.5237185835981,21.1497734653906,18.8450479163331,14.637260469654
-1112,Grasp,12m,Occipital,21.8652867481515,25.5325592613855,16.2361756860286,17.6174559963474,35.8447190562105,14.0869862645355,17.2873277087574,6.9063901249464,16.0616583768853,18.5084404271731,12.6601678383745,24.480285451335,24.942662828807,19.5779861202189,17.343325509473,25.5468011623881,21.1309142854747,18.9134634155682,14.6753855354972
-1110,Grasp,12m,Occipital,21.8924392774526,25.5447196595774,16.2169841772407,17.5764133159316,35.7477974230072,14.0981238848993,17.2419810029545,6.88358133867913,16.0759609237985,18.5699569275372,12.700629328135,24.5110084802659,24.867647189724,19.5761693563962,17.3207335723254,25.5663108176144,21.1082403734879,18.9812112440378,14.7138925459903
-1108,Grasp,12m,Occipital,21.9244799321846,25.5565375381465,16.2019961566802,17.535556269681,35.6522622960026,14.1108735569449,17.1948315812864,6.86176509119816,16.095429987384,18.6310740347809,12.7417892007725,24.5400580211838,24.7885105897802,19.5741241844745,17.3017320744336,25.5815169623066,21.0818392253298,19.0477912192847,14.7526597178061
-1106,Grasp,12m,Occipital,21.9615512770445,25.5677284020193,16.1897487708331,17.4951859559917,35.5582358200072,14.1253795157089,17.1466487668681,6.84130329569283,16.1200105033456,18.6913178211331,12.783538634555,24.5678155324791,24.7052992304536,19.5716789640434,17.2853751338208,25.5922425694477,21.0518658867586,19.1127573625804,14.7915754830461
-1104,Grasp,12m,Occipital,22.0038257046337,25.5781685092009,16.1790649825089,17.4556154305476,35.4661844227864,14.1412802888782,17.0983751675977,6.82198873205021,16.1493327229845,18.7500437222796,12.8257993500004,24.5947283031059,24.6181007399198,19.5687870144224,17.2714413658364,25.5983957853421,21.0186013866268,19.1758113964268,14.8305405244681
-1102,Grasp,12m,Occipital,22.0521115590215,25.5878007095875,16.1697162599765,17.4171878212181,35.3766435650451,14.1581846592974,17.0509892227588,6.80349314550561,16.1828131567323,18.8072884399625,12.8685238069901,24.6209277438883,24.5270447892054,19.565519312189,17.2593978711874,25.5999598010708,20.9825763539699,19.236779163399,14.8694694234952
-1100,Grasp,12m,Occipital,22.1057513596343,25.5966107370802,16.1616125647653,17.3802640668827,35.2901551122446,14.1759644936778,17.0052757173347,6.78576238356223,16.2199537061012,18.8634044396096,12.9117028258173,24.6465198351754,24.4322906704062,19.5620401815393,17.2489501123014,25.5969867349053,20.944291901662,19.2955266404605,14.9082870813574
-1098,Grasp,12m,Occipital,22.1636955672814,25.6046328367403,16.1547322156314,17.3452362941576,35.2073870654638,14.1945145277728,16.9617548642795,6.76876282581314,16.2604946209409,18.9188720574174,12.9553787962553,24.671592227763,24.3340210189724,19.5585759184538,17.2400005684961,25.5896043154433,20.9036502421093,19.3518680052788,14.9469358320195
-1096,Grasp,12m,Occipital,22.2256462692245,25.6119437153767,16.1490980122387,17.3125208238234,35.1291738426615,14.2136825578287,16.9209048124133,6.75245871323047,16.3046920025708,18.9735968320563,12.9996645888086,24.6962381815222,24.2324139979871,19.5554694316978,17.2326281091244,25.5780145189399,20.8605024090145,19.4055674055907,14.9853722848881
-1094,Grasp,12m,Occipital,22.2910336629337,25.6187185255343,16.1448437736827,17.2825458405613,35.0574254314152,14.2331999862986,16.883306470284,6.73684370364657,16.3530712315009,19.0275826114607,13.0447887949877,24.720524911601,24.1276683551858,19.5533257990223,17.2270591405595,25.5625026656753,20.8148800093575,19.4563784526443,15.0235783919124
-1092,Grasp,12m,Occipital,22.3596811364879,25.625422382031,16.1423365889008,17.2556259969272,34.9908599774883,14.2527260968576,16.8489381691391,6.72196096118475,16.4050877588105,19.0808176974695,13.0911372606139,24.7444810323913,24.020062217513,19.5526216439194,17.2241560613964,25.5434537909132,20.7669252168934,19.5040331554749,15.0615929428687
-1090,Grasp,12m,Occipital,22.4312974827731,25.6320997370054,16.1421455431014,17.2318321284794,34.9283058101435,14.2720117436432,16.81650144159,6.70801061890056,16.460388300863,19.1333121971184,13.1390679773976,24.7680587373164,23.9100478355605,19.5536024235678,17.2245820351763,25.5213727966061,20.7168762528797,19.5482670355001,15.0995437251771
-1088,Grasp,12m,Occipital,22.5048570412465,25.6387673808792,16.1445447439349,17.2111674014998,34.8697898352056,14.2909281214901,16.7849324517259,6.69529443065546,16.5189791607595,19.1851875875993,13.188652587097,24.7910815564407,23.7977829581376,19.556806115246,17.226361677306,25.4968974787703,20.6650643701881,19.5888656872574,15.1374363579911
-1086,Grasp,12m,Occipital,22.5797597011844,25.6453645576913,16.1500858529686,17.19373180101,34.8152945798257,14.3094381283722,16.7537788132701,6.68379056928414,16.5808628444625,19.236734190258,13.2399096318959,24.8133104027242,23.68301999003,19.5624626741392,17.2291768515429,25.4708270420538,20.6118048768317,19.625701403897,15.1750676570706
-1084,Grasp,12m,Occipital,22.6556379716688,25.6518013476282,16.1580412131507,17.1798587934587,34.7645150908364,14.3276033820216,16.7229518381619,6.67344077198478,16.6458407837897,19.288333338359,13.2929955278036,24.8346088330847,23.5657237331168,19.570819495598,17.233006490776,25.4445101969709,20.557283092044,19.6594484611623,15.2122390066366
-1082,Grasp,12m,Occipital,22.7320796303657,25.6580832454813,16.1675390348518,17.1702302772789,34.7173949963238,14.345582763546,16.6926126125327,6.66434582444403,16.7136552026196,19.3402428619197,13.3481718703072,24.8549538248712,23.446014181893,19.5818580127912,17.2377244976024,25.4181888892,20.501580912863,19.6895460213138,15.2488113059083
-1080,Grasp,12m,Occipital,22.8086035265603,25.6642042580209,16.1785117800188,17.1653414659995,34.6741511358304,14.3636537348966,16.6631525887647,6.65683783902703,16.7832677490067,19.3924623189401,13.4057660203649,24.8744418388967,23.3241002800146,19.595283805235,17.2432504545641,25.390991356419,20.4448088303528,19.7157844535716,15.284674601682
-1078,Grasp,12m,Occipital,22.8847794509237,25.6700289150321,16.1910738155303,17.1651904822061,34.6353399960883,14.3822125323911,16.6351984771958,6.65076243747575,16.8537904126591,19.444819564154,13.4661541140133,24.8932388861714,23.2010154266386,19.611234666047,17.2497590071496,25.3628695879374,20.3871563564739,19.7385502956808,15.3197406531954
-1076,Grasp,12m,Occipital,22.9609440768097,25.6754396228682,16.2051694734671,17.1711570847825,34.602535268417,14.4015947492845,16.6095810117413,6.64576358079318,16.9246988830191,19.4972083119879,13.5297640235034,24.9113023295655,23.078746920795,19.6295934587869,17.2573959079045,25.334091462789,20.3288539333382,19.7576185278009,15.3539262803875
-1074,Grasp,12m,Occipital,23.0360416495816,25.680408354256,16.2233446465343,17.1796980380675,34.5763889643381,14.4219729421712,16.5873113308786,6.64154645993804,16.9956394791692,19.5497596928564,13.5970819973023,24.9289012473075,22.9551935631063,19.6501317287863,17.2659215480694,25.305058481159,20.2701572270411,19.7726842560189,15.3871619924868
-1072,Grasp,12m,Occipital,23.1093650999904,25.6849664794203,16.243051225335,17.1896147253048,34.5582707245239,14.4446895112248,16.5692984228707,6.63788888401512,17.0663686940307,19.6027573246587,13.6683970002758,24.9467553750132,22.830240172153,19.6727261059887,17.2752294395248,25.2762553466127,20.2113321198241,19.7836848363514,15.4193881350468
-1070,Grasp,12m,Occipital,23.1807464676901,25.6891981101987,16.2637800855017,17.2003832443788,34.5478182684221,14.4697309138019,16.5553969124764,6.63466101557142,17.1367478697208,19.6563318887861,13.7435833274747,24.9648682787606,22.703924587146,19.6974237263952,17.2854431937852,25.2485490416454,20.1526621318946,19.7906082509404,15.4505560789997
-1068,Grasp,12m,Occipital,23.2498520631027,25.6932706587088,16.2862041814768,17.2110674164099,34.5441125124884,14.4972973969611,16.5442577279039,6.63207914999259,17.2067257570721,19.7104018015632,13.8224735912604,24.9834998271551,22.5762423648786,19.7246391908081,17.2965384134052,25.2249796833287,20.0944870409712,19.7934583854001,15.4806369918016
-1066,Grasp,12m,Occipital,23.316217991751,25.6976050777842,16.3087942455536,17.2208998648359,34.5477405087033,14.5275164041064,16.5345980721364,6.62990879894783,17.2762577750249,19.7647304633008,13.9051258476187,25.0034373559827,22.4472231781257,19.7545776180474,17.3084530786092,25.2049117656367,20.037221902448,19.7922462305453,15.5096252427153
-1064,Grasp,12m,Occipital,23.3796876863892,25.7026736994754,16.3315574065271,17.2293822062089,34.5588648521676,14.5605163563994,16.5256795070837,6.62797388292294,17.3453312128021,19.8189297445646,13.9917958091911,25.0242102137553,22.3170165618617,19.7867411069951,17.3214824050813,25.1877634967419,19.9812935022965,19.787006355146,15.5375822335615
-1062,Grasp,12m,Occipital,23.4402617900512,25.7082252918648,16.3531153322788,17.2361527129261,34.5763896274416,14.5963372567999,16.5171530261123,6.62627491421591,17.414145417029,19.8725380712932,14.0828523903929,25.0456791540704,22.1859754479662,19.8207729556146,17.3354359576233,25.1731297445313,19.9269282890734,19.7777723676725,15.5648550775818
-1060,Grasp,12m,Occipital,23.497819084782,25.7142756799948,16.3728731027767,17.2410438975949,34.5999046630211,14.6337040350455,16.5089675037014,6.6248565673599,17.4834686632786,19.9252245734242,14.1787653232054,25.0678864841956,22.0544077885428,19.8565023112259,17.3513183200441,25.1619799228715,19.8741991894213,19.7645621542173,15.591776887281
-1058,Grasp,12m,Occipital,23.552405829039,25.7207890125433,16.3904834475237,17.2463335734616,34.6305385884852,14.6718522170443,16.5013452494537,6.62378686682831,17.5538885068553,19.9770958489493,14.2801169968395,25.0925525035295,21.9221607758915,19.893671608641,17.369473656026,25.1539035967271,19.8232009864895,19.7473842388515,15.6180044977152
-1056,Grasp,12m,Occipital,23.6045733932718,25.7275870345484,16.4057068437011,17.2514576127805,34.6684549516142,14.7105999594975,16.4947387553322,6.62310660401647,17.6245755864262,20.0281780600183,14.3872761244522,25.1192660882245,21.7891704200215,19.9320758427925,17.3888430543353,25.1478587344228,19.7741085433221,19.726717076097,15.6435571688916
-1054,Grasp,12m,Occipital,23.654937769171,25.7343894464522,16.4183887432692,17.254197325662,34.7146818093116,14.749989080624,16.4894595889256,6.62288917924535,17.6950300912482,20.0776359035967,14.499560553692,25.1477072664197,21.6555552801201,19.9715605862933,17.4090679351435,25.1432052309376,19.7271703659186,19.7022890787063,15.6685211412737
-1052,Grasp,12m,Occipital,23.7032050378587,25.7409366298551,16.4284654948225,17.2542668781625,34.7686144710084,14.7899573755454,16.4852329451638,6.62278678326663,17.7652445235993,20.1252626022162,14.6158420819005,25.1780668066448,21.521523287409,20.0119524574891,17.4303343119288,25.1392658729214,19.6824961949637,19.6742169619309,15.6928799890335
-1050,Grasp,12m,Occipital,23.7502515868054,25.7470301432004,16.4359807149523,17.2516206128908,34.8277955602687,14.8312045485837,16.4814799839694,6.62280379365314,17.8354047407898,20.1708957559552,14.7353044873427,25.2103712793148,21.3873324043166,20.0531044158855,17.4532645374244,25.1354150644611,19.6398477567713,19.6427763710778,15.7165986932932
-1048,Grasp,12m,Occipital,23.7952125826949,25.7525434746111,16.4411565047454,17.2463702372028,34.8913087486608,14.8732721165262,16.477737175642,6.62297190073194,17.905274659122,20.2144080970579,14.8573807274218,25.2445789478114,21.2533011926443,20.0950583374448,17.4772910135534,25.1311526172045,19.5989488947106,19.6083411928877,15.7396701429347
-1046,Grasp,12m,Occipital,23.8375984737203,25.757410378585,16.4442971569881,17.2387420861182,34.9586583514268,14.9156878832575,16.4737254033468,6.62328459073536,17.9742954768447,20.2557037010187,14.9816269774871,25.2808405119481,21.1198596311847,20.1387596008474,17.5019107498273,25.1260858188853,19.5596182756888,19.571246568215,15.7621019009362
-1044,Grasp,12m,Occipital,23.8772938230417,25.7616173762642,16.4454039696732,17.2290227669497,35.0293758626374,14.9583038438528,16.4693228569945,6.62370216050706,18.0423985770628,20.2947201806316,15.1076689187821,25.3188984009351,20.9876750326476,20.1844014526893,17.526910633881,25.1199032692383,19.5217858140814,19.5317335472907,15.7839206449233
-1042,Grasp,12m,Occipital,23.914391185922,25.765193044084,16.444406937158,17.2174670684883,35.1037565166712,15.0010760821161,16.4645507231452,6.62417809575841,18.1097845631229,20.3314258030124,15.2351897665238,25.3608902973717,20.8578601210591,20.2315558294863,17.5520998243144,25.1123434594258,19.485477021211,19.4901001166988,15.8051784962879
-1040,Grasp,12m,Occipital,23.9490780475682,25.7682143328253,16.4413921096232,17.2041235111338,35.1821038961722,15.0437454525401,16.4595659616604,6.62467632336582,18.17674203647,20.3658263372153,15.363934577447,25.4055566079343,20.7309239635214,20.2806713023841,17.5771005534718,25.1031917643166,19.4505653268752,19.446704538042,15.825947265199
-1038,Grasp,12m,Occipital,23.9814919024923,25.7708063141798,16.4365073962414,17.188858638393,35.2630082833658,15.0859253628061,16.4545672385982,6.62517307500043,18.2438455422519,20.3979586911606,15.4937057296514,25.4519961784008,20.6070696623356,20.331735116094,17.6015892465301,25.0922579713406,19.4169572248808,19.4017589968842,15.8462789044391
-1036,Grasp,12m,Occipital,24.0118729199492,25.7732268568074,16.4299522168324,17.1734909835592,35.3470436165763,15.1274970287345,16.4496217846117,6.62565718844043,18.3124964438307,20.4278931922353,15.6243675243293,25.5005093907543,20.4867465348399,20.3848987888192,17.6254151336076,25.0793828250196,19.3848036790764,19.3554870185687,15.8661708072469
-1034,Grasp,12m,Occipital,24.0407443121124,25.7773110702591,16.4219005382766,17.1584361166381,35.4341000028051,15.1684355537345,16.4445366988435,6.62613263368735,18.3807335987359,20.455735913991,15.7558489209658,25.552388933035,20.3705808483662,20.4395324347875,17.6485388633358,25.0644308805585,19.3546300336917,19.3087294740465,15.8855594894347
-1032,Grasp,12m,Occipital,24.0678230382846,25.7815590044616,16.4123597059177,17.1417111271214,35.522600501674,15.2087349081462,16.4389906523466,6.62672628333162,18.4479808251072,20.4816391525099,15.8881491188274,25.6068894682044,20.2595755278487,20.4953974022009,17.6710041280955,25.0472970410696,19.3277032526193,19.2612394662501,15.904365160659
-1030,Grasp,12m,Occipital,24.0934262021773,25.7855769098141,16.4012637190369,17.1234879397688,35.612380126733,15.2484755313259,16.4327673124627,6.62782844622362,18.513869706979,20.5058699957698,16.0213484342971,25.6634202659722,20.1531806066996,20.5517709615376,17.6929279705401,25.0279262593555,19.3045725790402,19.2127737264583,15.9225533795907
-1028,Grasp,12m,Occipital,24.11774317529,25.7892438934963,16.3885618442892,17.1039007852929,35.7033036249791,15.2879181442169,16.4258490396162,6.62897952350088,18.5782930729935,20.5288890795222,16.1555710278677,25.7221024713466,20.0509060441529,20.6081948409183,17.7144313567444,25.0063229288293,19.2838066471964,19.1632865932434,15.9401499690111
-1026,Grasp,12m,Occipital,24.1420842936813,25.7923243712552,16.3742222628245,17.0830363183117,35.7949146209561,15.3274603087,16.4183928786963,6.6300745589756,18.6411903018877,20.5517060545368,16.290887603134,25.7832788741676,19.9528895980369,20.664470527891,17.7353058894538,24.9825748904146,19.2644759778623,19.1127121726814,15.9572973233764
-1024,Grasp,12m,Occipital,24.166076893132,25.7945276646208,16.3583374934507,17.0609335217117,35.8871688054556,15.3673654641889,16.4104638760019,6.6310982511108,18.702445552165,20.5744337312657,16.4272106128835,25.847834757662,19.8596363394011,20.720416813393,17.7553282941257,24.9569074475023,19.2463028551783,19.0608632871763,15.9742170086355
-1022,Grasp,12m,Occipital,24.1891116509073,25.7957249126666,16.3419536891345,17.0376909268,35.9811935730499,15.407163254495,16.4018267342092,6.63204758754779,18.7618746108361,20.5965278505649,16.5643338770034,25.9151391730532,19.7718766471155,20.7758499299892,17.7750602214932,24.9298150709948,19.2292017396011,19.007836145016,15.990421873759
-1020,Grasp,12m,Occipital,24.2119324148883,25.7959256866389,16.324842496874,17.0135086678332,36.0753055829023,15.4457695558291,16.3921990652739,6.63292956097118,18.8193263276547,20.6178235768678,16.702424003593,25.9841152788661,19.6902507997409,20.8307096718312,17.7933695247283,24.9022229515563,19.2131566706642,18.9560658318236,16.0055947641728
-1018,Grasp,12m,Occipital,24.2334408540884,25.7951612637327,16.3060697003601,16.9886644085175,36.1692936023822,15.4823864642229,16.381416229766,6.63385256542927,18.8747574423724,20.6383445773376,16.8416211058593,26.0543896156322,19.6146761379002,20.8852841457485,17.8100983344214,24.8744917396476,19.1981857244762,18.9045652552207,16.019696158004
-1016,Grasp,12m,Occipital,24.2537941386182,25.7932137008541,16.2856543523996,16.9635100524274,36.2637023054348,15.5165133877767,16.3694440560208,6.63488448821275,18.9283105387813,20.6580455724343,16.9803016070518,26.1258371691016,19.5448388571166,20.9395812253566,17.8251456502245,24.8466987008901,19.1843551672976,18.851962036593,16.0328611580164
-1014,Grasp,12m,Occipital,24.2731441695461,25.7896679560614,16.2638324009563,16.9384569776449,36.3588278881909,15.5478168747994,16.3563333264735,6.63611419299017,18.9800753862554,20.6766990943439,17.1173413833288,26.1981523024056,19.4807175924059,20.9936896343576,17.8384676848587,24.8191628130248,19.1717776697428,18.7983833019832,16.0453534905487
-1012,Grasp,12m,Occipital,24.2915194546532,25.7842091330063,16.2410477660653,16.9142827942136,36.4544218986229,15.5761088682098,16.3422128891056,6.63759749073504,19.0298794522676,20.6942268615453,17.2521470515295,26.2709726460723,19.422444932572,21.04629008459,17.850110436029,24.7920925669878,19.1606583190891,18.744158001584,16.0573423542916
-1010,Grasp,12m,Occipital,24.3089556419565,25.776633131768,16.2178394598876,16.8947245295957,36.5495061013229,15.6013286374397,16.3272647399678,6.6391349754542,19.0776425641048,20.7106141939456,17.3842726211479,26.3441181379731,19.3700759402447,21.0970636692733,17.8602057869514,24.7654405321419,19.1513542897759,18.6897143403465,16.0689368165668
-1008,Grasp,12m,Occipital,24.3256473655628,25.7668208100238,16.1944648701239,16.878438824426,36.6447649932208,15.6235350586016,16.3117131191269,6.64062107084592,19.1233956609812,20.7257817989374,17.5133369736845,26.4174925038608,19.3235460790944,21.1458775645243,17.8689898181724,24.7390380195812,19.1444339829748,18.6358577444574,16.080214102197
-1006,Grasp,12m,Occipital,24.3419437213994,25.7547184825287,16.1709053809041,16.864257995349,36.7388755753801,15.6428435899854,16.2957690161991,6.64188453441324,19.1672087002641,20.7396835376339,17.6390021060259,26.4910290553007,19.2828820775322,21.1926664159414,17.8767600545718,24.7127187347797,19.1401485002448,18.5821871576228,16.090846658903
-1004,Grasp,12m,Occipital,24.3583866975522,25.740331499794,16.1470279557022,16.8525782859425,36.831379757919,15.6593318222506,16.2795373197427,6.64273764538425,19.2091862033593,20.7523772888051,17.7609597340596,26.5650167166858,19.24891895855,21.2376888986166,17.8836430811514,24.6863545210588,19.1384128784864,18.5289680166108,16.1006553470803
-1002,Grasp,12m,Occipital,24.3762296947319,25.7237336158438,16.1226296577534,16.8435266319397,36.9223412048033,15.6731010532347,16.2630362820613,6.64306362661977,19.2494233608085,20.7639093217178,17.8789238670863,26.6404896551288,19.2241480811539,21.2819051187712,17.8897006291712,24.6598398486008,19.1426461931377,18.4764685778656,16.1099175514344
-1000,Grasp,12m,Occipital,24.3958319435608,25.7050968204152,16.0975730515281,16.8372284337312,37.0120058997139,15.6840577358543,16.2463078661889,6.64291847437497,19.2878632824085,20.7742332930473,17.9926282442199,26.7159359315998,19.2079479037743,21.3242219930462,17.8950705779687,24.6331268319996,19.1515648940884,18.4243526533685,16.1190918672364
-998,Grasp,12m,Occipital,24.4166468562024,25.6846199163244,16.0718474775177,16.8339103420314,37.1009017570946,15.6918009283374,16.229478806558,6.64227687471627,19.3243833091017,20.7833520454895,18.101818819684,26.7912237338481,19.1993539014861,21.3654067499897,17.8999920619611,24.6062676006358,19.1639265281765,18.372173510024,16.1275780857377
-996,Grasp,12m,Occipital,24.4386025500859,25.6623704929916,16.0456238312625,16.8338187493728,37.1887340705876,15.6965709404071,16.2128224521657,6.64073135223166,19.3590013662065,20.7914302554659,18.2062592117515,26.8662970141383,19.198964546583,21.4050998866161,17.9048724349978,24.5794369411684,19.1799848171387,18.3199023001175,16.135040011929
-994,Grasp,12m,Occipital,24.4618868584366,25.6383160008417,16.0217435399911,16.8371861698955,37.2752788690142,15.6992538792522,16.1969106955759,6.63803091583042,19.3919754581951,20.7986517196382,18.3057229130953,26.9411464436438,19.2066853089229,21.442869040127,17.910684267267,24.5529348226345,19.20063429626,18.2680210899447,16.1414430476235
-992,Grasp,12m,Occipital,24.4859000126256,25.6124217005741,15.9989211619715,16.8442610963028,37.3606335027603,15.6989456673342,16.1823791265193,6.63409989206085,19.4237610787562,20.8049996026987,18.400655829585,27.0159273583898,19.2206137226681,21.4792169876334,17.9179062960673,24.5271824979435,19.2288893030703,18.2165543288832,16.1469562346594
-990,Grasp,12m,Occipital,24.5111289260339,25.5851763555945,15.9763517084208,16.8553786690215,37.4448312645021,15.6957228000713,16.1689249234545,6.62895634219226,19.4542600579185,20.8105088595667,18.4920959288931,27.0908878666513,19.2406305787709,21.5140974227511,17.9265052628778,24.5026848414776,19.2614341557018,18.1654567985199,16.1525640769698
-988,Grasp,12m,Occipital,24.5380379083431,25.557275967467,15.954443213578,16.870937172386,37.5279500674404,15.6892850820647,16.1561149657951,6.62267509378559,19.4828533866583,20.8153774989867,18.5778452448824,27.1663731776385,19.2667915341673,21.5470135223379,17.936708303225,24.4800044429659,19.2976374860992,18.1151566696012,16.15786172273
-986,Grasp,12m,Occipital,24.5658012749632,25.5280674746113,15.9338510088048,16.8909679362249,37.6097098512189,15.6795335202675,16.1437167679676,6.61523577597036,19.5092472128422,20.8194468732386,18.6576506155808,27.242253010858,19.298951986239,21.5777380545783,17.9485114909908,24.4596552530911,19.3371402159663,18.0660172170108,16.1623799033145
-984,Grasp,12m,Occipital,24.5946687287589,25.4972383789712,15.9164728419095,16.9154589617338,37.6899844796056,15.6665797637704,16.1316034512393,6.60649296942869,19.5343547473226,20.8225590288675,18.7312944335297,27.3180885071584,19.3375128086949,21.606786813649,17.9631182032342,24.4420330090019,19.3820392933981,18.0180899061739,16.1658592803221
-982,Grasp,12m,Occipital,24.6259475079106,25.4647907640583,15.9019160003096,16.9446214120608,37.7688764931408,15.6506636629132,16.1197289904782,6.59628015949886,19.5577114770154,20.8247217810038,18.7985631400502,27.3938223327582,19.3817725059671,21.6341624776461,17.9792841367944,24.4273754751318,19.4320534385596,17.9713673697791,16.1681815482805
-980,Grasp,12m,Occipital,24.6595175191291,25.4305652633761,15.8889592797319,16.9787226215472,37.8465639401937,15.6319862373893,16.1081233976692,6.584465993525,19.578463436988,20.8260169281915,18.8592491160598,27.4695160507524,19.431761978558,21.6606057619047,17.9956054019361,24.4158279160848,19.4836747535059,17.9259198151074,16.1693697870234
-978,Grasp,12m,Occipital,24.6949657702612,25.3944772498651,15.8776247043575,17.0178848901512,37.9231106338319,15.6105657880313,16.0968942155448,6.57098080112408,19.595966796005,20.82657930349,18.9131469110166,27.5458689838766,19.4876617529105,21.6856090107763,18.0118029660427,24.4080721193147,19.5361750739742,17.8819711942102,16.1696016523157
-976,Grasp,12m,Occipital,24.7321051807513,25.3565495492473,15.8678751471552,17.0621326473075,37.9985217556007,15.5864422725579,16.0862161593767,6.55579392522142,19.6098265421684,20.8266298161947,18.9600632902514,27.6233750682584,19.5491512601064,21.7085266597224,18.0277387429076,24.4062603469707,19.5891154813827,17.8398694363528,16.1693311069733
-974,Grasp,12m,Occipital,24.7706735815502,25.3168079223742,15.8596580419838,17.1118839284926,38.0726910351846,15.5598936195755,16.0762510629951,6.53878239600805,19.6198106971477,20.8264886749417,18.9998090462939,27.7021171003268,19.616110926328,21.7295520298946,18.0433598118983,24.4082593769111,19.6421319183869,17.7996058980381,16.1685213130398
-972,Grasp,12m,Occipital,24.8099455270895,25.2751909049961,15.853524010492,17.1689691520025,38.1453505835288,15.5315900624299,16.0670310263842,6.51980224427715,19.6257729495971,20.8266105217376,19.0322056103492,27.780625208811,19.6885794543215,21.7500196763881,18.0586988812661,24.4135633065866,19.6949113773582,17.7610331866267,16.167243883384
-970,Grasp,12m,Occipital,24.8492749592141,25.2316597122545,15.8504219481535,17.2338521119887,38.2161676519483,15.5018490550915,16.0584593122732,6.49877779869157,19.6276428252248,20.8275299532671,19.0570868935052,27.8586945222727,19.7663761902171,21.7695343063397,18.0738678162408,24.4221230181593,19.7471825570705,17.7239521306667,16.1657071018809
-968,Grasp,12m,Occipital,24.8880185069205,25.1864255089483,15.8499553517275,17.304328793659,38.2848420750205,15.4704496803226,16.0504363566786,6.47568351016432,19.6254348514505,20.8292117750886,19.0742939166499,27.9359378401021,19.849445773405,21.7882729687485,18.0890411808622,24.4338957266903,19.79870866159,17.6886101474038,16.1640929090076
-966,Grasp,12m,Occipital,24.9255704555696,25.139703504409,15.8516611336877,17.3794918140976,38.3511614621535,15.4374567450945,16.0429107401501,6.45053281548172,19.6193377130994,20.8313729219166,19.0836803135646,28.0125085262016,19.9384824248961,21.8065039187531,18.1043995065614,24.4488249133818,19.8493405607761,17.6552915643718,16.1625716529857
-964,Grasp,12m,Occipital,24.961352974244,25.0913844296408,15.8552585389442,17.459385584527,38.4149934930196,15.4031489653652,16.0357787437185,6.4233827411042,19.6099189342042,20.8338156961101,19.0851176013403,28.0880601477977,20.0330974455274,21.8240430409663,18.1200696137161,24.4668541438007,19.8994655331079,17.6236239755224,16.1614189550544
-962,Grasp,12m,Occipital,24.9949044242272,25.042806016704,15.8605779590157,17.5454719184845,38.4762607284591,15.3678933482291,16.0287585936237,6.39435292002055,19.5975698395698,20.8364378804427,19.0784920025258,28.1626626326371,20.1327840927124,21.8405942439747,18.1361767413422,24.4879277159409,19.9491442630655,17.5937854156912,16.1610807245416
-960,Grasp,12m,Occipital,25.0259369395723,24.9930235019665,15.8675345549853,17.637726840655,38.5349346234537,15.3320071851844,16.0214107378119,6.36377088341968,19.5819115643611,20.8392411723575,19.0637066029038,28.2363439916663,20.2375660161354,21.8560374028299,18.1529260900619,24.5120084680265,19.9974500592096,17.5661998728959,16.1619693824085
-958,Grasp,12m,Occipital,25.054153719793,24.9415099496938,15.8761444856977,17.7343874368435,38.5910453268185,15.2955334791508,16.0132871501277,6.33163620916648,19.5628947219428,20.8423107299703,19.0406892574927,28.3091638652654,20.3478590208049,21.8703163275662,18.1704609471171,24.5390913106415,20.0441098657594,17.5409606234446,16.1661800755815
-956,Grasp,12m,Occipital,25.0790227446069,24.8881076926309,15.8888947886738,17.8350234151296,38.6446849411653,15.2583794053171,16.0040456455156,6.29784224724542,19.5412830071417,20.8458017691105,19.0093956285877,28.3811936625788,20.4642551956789,21.8833094748363,18.1888651330531,24.5692308424221,20.0890015668792,17.5180382010654,16.1722158275189
-954,Grasp,12m,Occipital,25.0999825775868,24.8328332268742,15.9045432718092,17.9396718522303,38.6959811478125,15.2204885158806,15.993494978076,6.26245127337709,19.5170087681607,20.8499323547261,18.9698141108436,28.4524049962357,20.5861247498885,21.8948343659875,18.2086715752973,24.6025756441692,20.1322913076915,17.4975909089883,16.181857066329
-952,Grasp,12m,Occipital,25.1166157433639,24.77574078545,15.9226488312936,18.0492137672606,38.7450563778827,15.1818832112552,15.9816554562046,6.22565623576446,19.4897398196428,20.8549663294549,18.9219727164523,28.5226478411674,20.7123090751868,21.9047857461754,18.2295078956305,24.6395418215165,20.1747329008073,17.479669045797,16.1938955911092
-950,Grasp,12m,Occipital,25.1286283301045,24.7168547099,15.9422751411876,18.1667650043105,38.7920336309321,15.1426635750369,15.9688243428705,6.18776795179761,19.4592411180058,20.8611899150456,18.865942315875,28.5916553902291,20.8419437581723,21.9131806416925,18.2506459197429,24.6835107609871,20.215390506284,17.4641761288049,16.2071622239127
-948,Grasp,12m,Occipital,25.1358266525842,24.6561520417023,15.9628623329727,18.2907218399584,38.8370800537239,15.1030128739194,15.9553328173772,6.14879370546211,19.4254612292065,20.8687952500171,18.8018469885126,28.659016057416,20.9747525745676,21.920150586271,18.2717529675265,24.7348971808905,20.253981047953,17.4511367733932,16.2216567046364
-946,Grasp,12m,Occipital,25.138188596669,24.5936080380206,15.9843240844867,18.418715966141,38.8803892599378,15.0632519191086,15.9411395777838,6.10878777049758,19.3884676584986,20.87777679851,18.729853171982,28.7244359184833,21.1112868879025,21.9259542932434,18.2926710699748,24.7948394418988,20.2904972978235,17.4416377469298,16.2374233158312
-944,Grasp,12m,Occipital,25.1363392669101,24.5292708907183,16.0070330439111,18.5500621654744,38.9219762999582,15.0242270186742,15.9257771642095,6.06790987248233,19.3483780814348,20.8880389104893,18.6501482735868,28.7878038250431,21.2518253695257,21.9311912952396,18.313409180986,24.8627952025796,20.3250574783699,17.4345329353617,16.2544271851347
-942,Grasp,12m,Occipital,25.1296797051838,24.4632634881678,16.0313160163334,18.6844556959931,38.9616921777624,14.9866419643354,15.908742385369,6.0263757862402,19.3052908317961,20.8994658186861,18.5629012272289,28.8491226024585,21.3960004030489,21.9370877012471,18.3344204586315,24.9351563311542,20.3578632653562,17.4298951307793,16.2725568382168
-940,Grasp,12m,Occipital,25.118027884418,24.3956983596496,16.0564782559941,18.8218169416041,38.9994113539538,14.9501839959467,15.8897786076423,5.98444246114708,19.2592436946673,20.9119200022235,18.4682225355243,28.9083669995903,21.5440385041082,21.943450569796,18.3565436461975,25.0108683251766,20.3888199604613,17.4280701120649,16.2920976627039
-938,Grasp,12m,Occipital,25.1014573520749,24.3266377589669,16.0819444777834,18.9622587504782,39.0350324731507,14.9147745488648,15.8688110725118,5.9422753437236,19.2102371875154,20.9252774656594,18.3661824444116,28.9655002233771,21.6962426851004,21.9497771030404,18.3801140706014,25.0895926508281,20.4177353500192,17.4294429923266,16.3138325217612
-936,Grasp,12m,Occipital,25.0801690523936,24.2561882390067,16.1074651797004,19.1060208446309,39.0683479447725,14.8805056620356,15.8459051404079,5.89993753235845,19.1582959158005,20.9394810596359,18.2568621865273,29.0205712992684,21.8524946850913,21.9559190379154,18.4073398619673,25.1711239824434,20.4445647759852,17.4345502567482,16.336197423895
-934,Grasp,12m,Occipital,25.0539965491144,24.1851666692706,16.1328144867433,19.2533118122254,39.0991430401519,14.8476748127791,15.8212975989443,5.85752808283221,19.1035124656878,20.9545551110876,18.1404150177768,29.0736625813063,22.0123496506768,21.9611942098565,18.4364469402048,25.255293965993,20.4693345574671,17.4425933699169,16.3588775962917
-932,Grasp,12m,Occipital,25.0230526456786,24.1144256492378,16.1577409273626,19.4044765853123,39.1276135723531,14.8170172278738,15.7954143466059,5.81520840777397,19.0460759613412,20.970461539605,18.0171239870357,29.1247833757684,22.1753004206859,21.9655057536959,18.4665372722466,25.3419830588865,20.4920925959511,17.4547429298816,16.3816246952459
-930,Grasp,12m,Occipital,24.9875494263091,24.0427700704751,16.182017227946,19.5593596662462,39.1546701685943,14.7885544498367,15.7686442950254,5.77318602518687,18.9861852688465,20.9869355173347,17.8874060620499,29.1749755734012,22.341009717362,21.9689723528931,18.4971656438631,25.4311203297551,20.5128699598851,17.4706519800055,16.4044949952871
-928,Grasp,12m,Occipital,24.9477879709966,23.9700735133432,16.2054780204648,19.7181047048341,39.1799523737725,14.7620281869157,15.7403786291534,5.73173455317942,18.9239369067342,21.0036770401641,17.7517329013962,29.2232134898725,22.5091880515613,21.9715791166414,18.5281275495317,25.5227271349109,20.5317864240885,17.4897727593894,16.4279735195875
-926,Grasp,12m,Occipital,24.9041808309185,23.8963674168186,16.228011206469,19.8828317582713,39.2029646877629,14.7374524593177,15.7097739333277,5.69126698180265,18.8593527097441,21.0204716173014,17.6104266584228,29.2691658026168,22.6792647136643,21.973389546216,18.5595693124843,25.6169448725109,20.5492865181951,17.5125584034032,16.4516981616143
-924,Grasp,12m,Occipital,24.8574376039864,23.8217344442211,16.2495589966821,20.0518505175552,39.223514782463,14.7147799123264,15.6765792791237,5.65213504191795,18.7925061402068,21.0371851532289,17.4636469599933,29.3128202184882,22.8507550008294,21.9740757000773,18.5915204792977,25.714097332017,20.5660691283731,17.5388969798225,16.4749929161167
-922,Grasp,12m,Occipital,24.8086873086584,23.7463199535414,16.2701110167081,20.2233321660997,39.241492903856,14.6936529547211,15.6407514024972,5.61459865821626,18.7235553552805,21.0537222192502,17.311551462553,29.3542504515044,23.0233836190442,21.9734418454971,18.6237307031533,25.8147208089489,20.5819931055904,17.569261135118,16.4974423638989
-920,Grasp,12m,Occipital,24.758509579548,23.6703620644223,16.2897110653385,20.3971492087567,39.2569892769779,14.673534769867,15.602357963887,5.57901157911387,18.6527363392778,21.0700162031327,17.1543819276137,29.3936887381985,23.1970128231121,21.9714657136282,18.6570766929278,25.919509897979,20.5964373004834,17.6034799256209,16.5186048375557
-918,Grasp,12m,Occipital,24.7070206161076,23.5942194208892,16.3084558640871,20.5750762358388,39.269898559117,14.6539627930237,15.56154014656,5.54535085553739,18.5803476486363,21.086019058984,16.9924598525414,29.4316845684432,23.3715980817007,21.9682540329334,18.6914614656109,26.0292165509381,20.6091241563408,17.6417117251809,16.5380355453271
-916,Grasp,12m,Occipital,24.6552814818144,23.5192610271474,16.3265247267039,20.7559183220963,39.2802266074495,14.6346258071971,15.5185311491877,5.51396806177728,18.506825797225,21.1017514579493,16.8261961607534,29.4688284057575,23.5471986721301,21.9640340472442,18.7267405850773,26.1462145604008,20.6201085775782,17.6827468441535,16.5553879125607
-914,Grasp,12m,Occipital,24.6027492935825,23.4459951136944,16.3441591850769,20.9387777763385,39.2881046846719,14.6154623458007,15.4736610408438,5.48546281567346,18.4331797084864,21.1172682358536,16.6560814673024,29.5047312017346,23.7239636768408,21.9591238897669,18.7628461584571,26.2714772744674,20.6298986060177,17.7261857189444,16.5704204960243
-912,Grasp,12m,Occipital,24.548913670607,23.3730275208638,16.3615484662981,21.125017263092,39.2936311161413,14.596778574315,15.4273982307354,5.45958447023319,18.3601477462522,21.1324539920925,16.4826929632203,29.5391776579958,23.9021958895424,21.9539390106413,18.7990148939466,26.4025284220927,20.6383411210458,17.7721808891122,16.5829883049898
-910,Grasp,12m,Occipital,24.4938266500534,23.3001908358028,16.3787465294278,21.3111378526787,39.2969129872603,14.5779060248412,15.3803797347079,5.43642281215858,18.2873025852026,21.1471573199131,16.3067102659298,29.5723732005205,24.0825471465537,21.9490024401825,18.8350435244103,26.538835583211,20.6448891305984,17.8206412662609,16.5930716181601
-908,Grasp,12m,Occipital,24.4389788957176,23.2274695156877,16.3969693289356,21.4968842501993,39.2981239628837,14.5585114738358,15.333329585374,5.4159037626238,18.2148503762464,21.1613114474255,16.1289309683953,29.6047268561003,24.2660956499412,21.9450629576524,18.8707558144774,26.6804761373326,20.64944078323,17.8725160140784,16.6008207433145
-906,Grasp,12m,Occipital,24.3837822077889,23.1549608603445,16.4153964783114,21.681968846024,39.2979656591398,14.5384681615963,15.2867679661974,5.39824517152709,18.1431588384687,21.1748887099773,15.9503060489476,29.6367820729035,24.4554317749877,21.9431621205764,18.9060372534616,26.8274696607762,20.6520456641577,17.926470641007,16.6062652027716
-904,Grasp,12m,Occipital,24.3276992925722,23.0828842015449,16.4342365320078,21.8659971526287,39.2974445420118,14.5177044682805,15.2408529559135,5.38327911137178,18.0726679359238,21.1878999109047,15.7720101333517,29.6691506855777,24.6474909161515,21.9432385943835,18.9408813697471,26.9802015629293,20.6528362168333,17.9825752622161,16.6091683287897
-902,Grasp,12m,Occipital,24.2710869535692,23.0116556870203,16.4541855174176,22.0486563741547,39.2956626914909,14.4961814351405,15.1956375243107,5.37101320467484,18.0038124768759,21.2003722384,15.5954829142335,29.7022209276826,24.8412407218741,21.9448007056956,18.9752826569572,27.138980737462,20.6520009394728,18.0414780000807,16.6094065222799
-900,Grasp,12m,Occipital,24.2145484773352,22.9423296263511,16.4761224595993,22.2298989720983,39.2932356811011,14.4739105356639,15.151453815028,5.36167850074443,17.9368611712184,21.2123611376423,15.4223849016869,29.7361276090539,25.0359778975062,21.9475480862792,19.0093575767237,27.3026190559871,20.6497981458314,18.1028189853341,16.6069886657468
-898,Grasp,12m,Occipital,24.1583103488001,22.8754075676968,16.5004996729709,22.4095336510538,39.2909445008917,14.4510626687268,15.1092412435301,5.35497329714612,17.8719000092467,21.2239458969601,15.2543314010715,29.7696718642292,25.2311983481121,21.9526864260599,19.0434412924257,27.4699206729078,20.6465663912271,18.1659731697053,16.6019958349732
-896,Grasp,12m,Occipital,24.102173134914,22.810336919568,16.5268781237832,22.5871707523424,39.2883889483953,14.4292976739073,15.0700599568772,5.35064802422923,17.8090618765922,21.2352570593791,15.0925470092347,29.8024328665936,25.4266633588241,21.9589238922008,19.0769514219706,27.6402998904786,20.6427890771589,18.2307665827255,16.5945913262157
-894,Grasp,12m,Occipital,24.045974154875,22.7466878159413,16.5543883180695,22.762455738375,39.2853910150449,14.4081472606169,15.0340335338386,5.34852273700121,17.7486747570967,21.2464709900813,14.9377580006326,29.8350749445679,25.6223136515774,21.9663275309251,19.1099269915297,27.8134725284202,20.6392833627475,18.2971485931235,16.5850044528552
-892,Grasp,12m,Occipital,23.9898869418909,22.6845387960954,16.5823399396591,22.9348940930889,39.2822499561544,14.3864926418327,15.000848319853,5.34836403097426,17.6912004833463,21.2578846323077,14.7906837178962,29.866785392973,25.8181478595019,21.9751479626321,19.1423790792747,27.9918755158012,20.6365916377775,18.3652164899658,16.5735272213318
-890,Grasp,12m,Occipital,23.9343902725378,22.624265399181,16.6102947811248,23.1038335586297,39.2802769134605,14.3642966524894,14.969951787525,5.34994855782304,17.6371947661848,21.2699505596979,14.6524163956108,29.89732102924,26.0140428838714,21.985698208365,19.1742225740819,28.175499839898,20.6343248896025,18.4351364667202,16.5604849396624
-888,Grasp,12m,Occipital,23.8803184579979,22.5663696381894,16.6379349122901,23.2686192187616,39.2801133488242,14.3415555287073,14.9410315574723,5.35311127247485,17.5882954961228,21.2830776610069,14.5233524593727,29.927240242134,26.2099641210913,21.9972644940281,19.2054681302747,28.3612268817141,20.6324189595813,18.5072142958903,16.5463266363708
-886,Grasp,12m,Occipital,23.8282135519875,22.5099926563317,16.6649658696881,23.429146570631,39.2806470517138,14.3181381939832,14.9141214460802,5.35774868972021,17.5443064113995,21.2973388064203,14.4024150714795,29.9576045331512,26.4070529000487,22.0097239239677,19.2362068675414,28.5486592533064,20.6310232694088,18.5813108926348,16.5318649567922
-884,Grasp,12m,Occipital,23.7780306612722,22.4556669590355,16.6911163178478,23.5853135432285,39.2819478266443,14.2939261706653,14.8894839386942,5.36381193153441,17.5048625597206,21.312695173977,14.2886659394509,29.9875238256323,26.6042547921928,22.0230103162756,19.2665011139279,28.7374526690268,20.630377493935,18.6562526029427,16.5176845158567
-882,Grasp,12m,Occipital,23.7299281014397,22.4036497586219,16.7161738241688,23.735879203561,39.2844926378683,14.2689328573833,14.8674549172998,5.37128146937938,17.4723027324532,21.3291928141695,14.1818474681253,30.0166351825503,26.8012363090065,22.037404859927,19.2963152839955,28.9272962157918,20.6307985554054,18.7317554245455,16.5038505903903
-880,Grasp,12m,Occipital,23.6844465905014,22.3528080179005,16.7400064568449,23.8805660012755,39.2890305004436,14.2432807199305,14.8483566979913,5.38015701041997,17.445537027254,21.3469356980445,14.0821331671605,30.0450042612898,26.9980092874089,22.0535721583525,19.3256666634072,29.1181466636096,20.632660501468,18.8079925481796,16.4902077954347
-878,Grasp,12m,Occipital,23.642290008182,22.3029421350757,16.7625485355032,24.0192261204681,39.2958977286382,14.2171055104387,14.8324066699704,5.39045769949074,17.4258752340351,21.3660661120032,13.9899295470373,30.0725893406705,27.1939933737993,22.0707774412334,19.3546868166457,29.3122864514549,20.6363482320027,18.8855977148666,16.476691648804
-876,Grasp,12m,Occipital,23.6037430960159,22.2540554371976,16.7838095637047,24.1516765402065,39.3053807990235,14.1906026846982,14.819126554699,5.40224400903514,17.4121113848803,21.3868717058116,13.9081395492982,30.0993131271757,27.3886678554308,22.0886274718023,19.3837358914773,29.5074887780037,20.6444259455429,18.9634443192004,16.4633344666686
-874,Grasp,12m,Occipital,23.5680451817934,22.2061028187414,16.8038535514077,24.2774991766501,39.3184134175541,14.1643154314361,14.8075747142826,5.41561038168682,17.4028165833634,21.4098448998573,13.8382844231798,30.1250606735857,27.5817437631385,22.1075168933055,19.4134093299624,29.7029701196277,20.655386760551,19.041476619356,16.4500539608008
-872,Grasp,12m,Occipital,23.534625864032,22.1590774247976,16.8227905200888,24.3961868227884,39.337580390823,14.1387222006396,14.7971040069408,5.4306599180785,17.3977404669882,21.4351618621807,13.7773228740794,30.1497886007444,27.7729728650929,22.127862019219,19.4434935419172,29.8987333044148,20.6674813786853,19.1196504820162,16.4367475701775
-870,Grasp,12m,Occipital,23.5033977963876,22.112757670355,16.8407186630548,24.5074246594733,39.3616374764039,14.112253471069,14.7873438347995,5.4474969056139,17.3969439359121,21.4623660383786,13.7260348036728,30.1736048628909,27.9617505637933,22.1492625244422,19.4736889463228,30.0947091516527,20.6803799066166,19.1980785573911,16.4235567730479
-868,Grasp,12m,Occipital,23.4740625533429,22.0669871683509,16.8576912958875,24.6120109965779,39.390718452377,14.0844142015562,14.7780076635976,5.46628838275139,17.4001320482665,21.4910589264245,13.6851467307541,30.1967447313161,28.1473349584638,22.1716859119755,19.5037468991395,30.2905321686233,20.6941124970562,19.277435274159,16.4102744877263
-866,Grasp,12m,Occipital,23.446424745074,22.0216803955262,16.8737231260713,24.7102100926621,39.4258366456378,14.0551415359111,14.7688550321301,5.48716099479765,17.4071701883212,21.5210148116637,13.6550985703047,30.2193287575154,28.3292657882669,22.1953206327943,19.5336381117075,30.4856221147734,20.708420361751,19.3568718293052,16.3964942734403
-864,Grasp,12m,Occipital,23.4203058611495,21.9766617857822,16.8888761306072,24.8007391557032,39.4663404607085,14.0244108019932,14.7597465372062,5.50993913324889,17.4177095505033,21.5520422874252,13.6371227959518,30.2412902043202,28.5072123453954,22.2205968106396,19.5630320574519,30.6793566842598,20.723000324271,19.4360301000275,16.3820229733672
-862,Grasp,12m,Occipital,23.3960147855797,21.9317164882341,16.9032968234167,24.8833643873939,39.5115241177349,13.9921993349507,14.7509265892987,5.53432923106155,17.4323019974135,21.5839354541136,13.633886826276,30.262691991799,28.6808990926498,22.248407901803,19.5913915454307,30.8711416380051,20.7380028783509,19.5149189372615,16.3667056024801
-860,Grasp,12m,Occipital,23.3740399097602,21.8867034176712,16.9169952755017,24.9577120563252,39.5607017429015,13.9589253537773,14.7439032903639,5.55994574428143,17.4509993764559,21.6164976433639,13.6443873802671,30.2839807680251,28.8500851126848,22.2789786839573,19.6184508309273,31.0604692621821,20.7538208011061,19.5935486011712,16.3504642181885
-858,Grasp,12m,Occipital,23.354434564357,21.8416213751018,16.9298510603652,25.0232956141597,39.6132852680233,13.9245843742586,14.7374541430247,5.58658903747089,17.4729091047294,21.6495994119237,13.6659522381226,30.3048594557803,29.0145677946363,22.3114868549628,19.6442869737152,31.2469291034039,20.7703309007877,19.6718530269831,16.3333037232141
-856,Grasp,12m,Occipital,23.3369326769295,21.7966124056596,16.9418821320664,25.0797176602877,39.668844307055,13.8887782578421,14.7312913775845,5.61405490583375,17.497788238801,21.683328357083,13.6967136013581,30.3247647249754,29.1741722407413,22.3458998458794,19.669541562453,31.4301895612158,20.7874598720166,19.7495445512978,16.3152751612582
-854,Grasp,12m,Occipital,23.3225571196602,21.7519875849393,16.9532674392502,25.1267020671303,39.7270990823071,13.8515700591036,14.7257361739019,5.64232839383768,17.5248716645433,21.7178689232258,13.7357146051595,30.3435018942598,29.3287547457674,22.3820024236722,19.6935436622863,31.6099794053219,20.8054013435938,19.8261536893814,16.2964531556563
-852,Grasp,12m,Occipital,23.3112416625497,21.7082690471366,16.964253830464,25.1640824470908,39.7879297459613,13.8129787426009,14.7207836051725,5.67141452823666,17.553582682205,21.752947889814,13.7825215456853,30.3610240707911,29.4782037113467,22.4193824559573,19.7156303476419,31.7860808515679,20.8245582882663,19.9013487012451,16.2769366442734
-850,Grasp,12m,Occipital,23.302738525444,21.666159400433,16.9752680938292,25.1917968680564,39.8516844965457,13.7731975496088,14.7160095676428,5.70100963017158,17.5832566957848,21.7884883995851,13.8370407506346,30.3773940142184,29.6224670841844,22.4574220570526,19.7355180057777,31.9583773578138,20.8455615682031,19.9763747369679,16.2568683304226
-848,Grasp,12m,Occipital,23.2969428096784,21.6262164045387,16.9878219970575,25.2099007753953,39.9191096056617,13.7327154012231,14.7113183399122,5.73136009433231,17.6135837567338,21.8243846581084,13.898767738769,30.3928174205489,29.7615596840546,22.4959017458947,19.7529999893279,32.1274970182855,20.8685008056183,20.0491838329455,16.2364474768091
-846,Grasp,12m,Occipital,23.2931631028095,21.5885118651581,17.0042482803535,25.2185777996119,39.9898597724236,13.6917827797333,14.7087912833354,5.76273252940105,17.6446944657328,21.8605007527879,13.9670613894529,30.407622250554,29.8953477707031,22.5344755109718,19.7678913474963,32.296242853313,20.896076922897,20.1194306938211,16.2159156920839
-844,Grasp,12m,Occipital,23.290737056092,21.5533674893114,17.0209832996922,25.2181896165422,40.0641321766369,13.650413385732,14.7067620349633,5.79479233147556,17.6762335737483,21.8967778108425,14.0415747951785,30.4221251748083,30.0235454638218,22.5728837765276,19.7800371026976,32.4621273546255,20.927026538757,20.1868908120778,16.1955851552119
-842,Grasp,12m,Occipital,23.289561580463,21.5206586818977,17.0369254363375,25.2089336130454,40.1419072951612,13.6088675065878,14.7049258852827,5.82744594560565,17.7077854684101,21.9332146544796,14.1217062322471,30.4363446322355,30.1458987474433,22.6111150631042,19.7892978465853,32.6236208469351,20.9622749797084,20.2514444216855,16.1758199693177
-840,Grasp,12m,Occipital,23.2890923544559,21.4910628492945,17.0518252301338,25.1908284568072,40.2216665783932,13.567568133459,14.7034356149294,5.86051683700518,17.7388107431005,21.9698396534135,14.2064567809548,30.4500090809992,30.2622227805852,22.6490612876283,19.7955513672253,32.7804301939243,21.00320122851,20.3130859208539,16.1569511114823
-838,Grasp,12m,Occipital,23.2890231905369,21.4651353156119,17.0655486300581,25.1640857108122,40.3021059741867,13.5269853000166,14.7025341844669,5.89388681016031,17.7685323005469,22.0067096595524,14.294838187372,30.4627287134967,30.372386329268,22.6867449014438,19.7987020100958,32.9324018122056,21.0468792316415,20.3718781856538,16.139641495383
-836,Grasp,12m,Occipital,23.2892666688366,21.4416360755852,17.0780456853682,25.1290665942381,40.3827344221249,13.487203772001,14.7025766156106,5.92748001348991,17.7964537899645,22.0438914302819,14.3859047044018,30.4742327357682,30.4762735870657,22.7242199035355,19.7986711732819,33.0794035360975,21.0923890823092,20.4278450881399,16.1260000475997
-834,Grasp,12m,Occipital,23.2898052057855,21.4204399620041,17.0893887489816,25.0861196578404,40.46320832256,13.4481853499992,14.7041166426866,5.96123832042915,17.8223610808721,22.081458843726,14.4786288715047,30.4844684862842,30.5738014637522,22.7616843540234,19.7954155087759,33.2213266829491,21.1395882857496,20.4809991304279,16.1145499436792
-832,Grasp,12m,Occipital,23.2905269983929,21.4015663836613,17.0997609681258,25.0354177265091,40.5432893786051,13.4100960063586,14.7080564517279,5.99510891649633,17.8462397518171,22.1195820823513,14.5720689427654,30.4935862432132,30.6649079969538,22.7991204275697,19.788933226276,33.3580814832586,21.1885647598374,20.5313655588768,16.1050656826607
-830,Grasp,12m,Occipital,23.2914032302748,21.3851618035005,17.1092695630932,24.9770198849845,40.6228428312277,13.3733512093884,14.7154608602986,6.02905214607332,17.8681844487326,22.1586264531717,14.6654570972997,30.5017455331902,30.7495486755908,22.8366855612304,19.7792773345256,33.4895849665061,21.2395049418358,20.5787011477103,16.0975330263408
-828,Grasp,12m,Occipital,23.2935365055033,21.3714833965104,17.1178714004737,24.9110658506699,40.7018915199762,13.3380767270679,14.7273204322562,6.06306001375176,17.8882951499125,22.197991612325,14.7581776556207,30.5086327019927,30.8277029887726,22.8742930134828,19.7665699538766,33.6157748470174,21.2925753975599,20.6227423432743,16.0920125353608
-826,Grasp,12m,Occipital,23.2977641554134,21.3608758270156,17.1256488882148,24.8379209562685,40.7806006615028,13.3035260926394,14.7455098955003,6.09717266579646,17.9066622311383,22.2376047771698,14.8497356445144,30.5140721707279,30.8993653884866,22.9120479200213,19.7509468206583,33.7365993886596,21.3478515314628,20.663790089133,16.0885676333403
-824,Grasp,12m,Occipital,23.3023100833223,21.3527752290929,17.1328071606264,24.7583478005805,40.8590846111363,13.2691429018577,14.7710219083862,6.13152778557931,17.9233428397849,22.2775977590318,14.9397369946989,30.5180865459234,30.9645615018707,22.9497622547895,19.7324593552162,33.8520347042506,21.4052095701978,20.70160718986,16.0872927832548
-822,Grasp,12m,Occipital,23.3073558980123,21.3467287949409,17.139203309619,24.6726482705478,40.9375313159648,13.2347114670987,14.8008359734947,6.16645751819931,17.9383948409359,22.3183569373965,15.0278162887509,30.5207594905461,31.0233413493926,22.9869630209152,19.7111002268217,33.9620610000519,21.4642331487521,20.735876457487,16.0884000436728
-820,Grasp,12m,Occipital,23.3130379336927,21.3434859736988,17.144556511494,24.584354757415,41.0162503626989,13.2002569602283,14.8351719545466,6.20212184513152,17.9520435794188,22.3600889720168,15.113492771116,30.522255920543,31.0768706599924,23.0233177659245,19.6869249778983,34.0667017961108,21.5246389526584,20.766444914283,16.0921806474454
-818,Grasp,12m,Occipital,23.3191410845928,21.3425196747866,17.1495020572152,24.4912998696318,41.0952248109347,13.1665636321438,14.8753016283342,6.23855798050209,17.9648137311655,22.4026756360356,15.1960382473326,30.5229967376476,31.1246614800239,23.058101791333,19.6606046928413,34.1660051056062,21.5863541759568,20.7933628608298,16.0985328949388
-816,Grasp,12m,Occipital,23.3257000844124,21.3434863985034,17.1544392101374,24.3925488085259,41.1742251874028,13.1335310859933,14.9210018752765,6.27517431046576,17.9774897417625,22.4457344888214,15.2746369218229,30.525210207194,31.1664016887612,23.0909425462041,19.6321809856956,34.2600565133233,21.6491556944082,20.816828991817,16.1070531498218
