Time,Condition,Age,ChannelPair,connect_overtime_LA_EEG_12_P04_CTS_MTH_chanpair_12m.mat,connect_overtime_LA_EEG_12_P05_CTS_MTH_chanpair_12m.mat,connect_overtime_LA_EEG_12_P06_CTS_MTH_chanpair_12m.mat,connect_overtime_LA_EEG_12_P07_CTS_MTH_chanpair_12m.mat,connect_overtime_LA_EEG_12_P08_CTS_MTH_chanpair_12m.mat,connect_overtime_LA_EEG_12_P10_CTS_MTH_chanpair_12m.mat,connect_overtime_LA_EEG_12_P11_CTS_MTH_chanpair_12m.mat,connect_overtime_LA_EEG_12_P16_CTS_MTH_chanpair_12m.mat,connect_overtime_LA_EEG_12_P17_CTS_MTH_chanpair_12m.mat,connect_overtime_LA_EEG_12_P19_CTS_MTH_chanpair_12m.mat,connect_overtime_LA_EEG_12_P20_CTS_MTH_chanpair_12m.mat,connect_overtime_LA_EEG_12_P21_CTS_MTH_chanpair_12m.mat,connect_overtime_LA_EEG_12_P22_CTS_MTH_chanpair_12m.mat,connect_overtime_LA_EEG_12_P23_CTS_MTH_chanpair_12m.mat,connect_overtime_LA_EEG_12_P24_CTS_MTH_chanpair_12m.mat,connect_overtime_LA_EEG_12_P25_CTS_MTH_chanpair_12m.mat,connect_overtime_LA_EEG_12_P26_CTS_MTH_chanpair_12m.mat,connect_overtime_LA_EEG_12_P27_CTS_MTH_chanpair_12m.mat,connect_overtime_LA_EEG_12_P28_CTS_MTH_chanpair_12m.mat
-1000,cane,12m,PO,0.554195961403572,0.48742030247968,0.538971656602248,0.563431748217414,0.576707040069811,0.493533235522066,0.514043649834499,0.553730692180579,0.681270924075876,0.570022562019393,0.648281042262174,0.69387690459788,0.485951392617182,0.539240484218089,0.539372307727381,0.571755734279837,0.595094751643472,0.513615906139634,0.454615177787983
-990,cane,12m,PO,0.555245156047274,0.490219756648038,0.534841631120488,0.564287388624284,0.57810759999413,0.49956868665714,0.506600763631245,0.550889277128484,0.682148217322917,0.564319971248782,0.650818624885106,0.692254030355237,0.488670840224557,0.541565980785938,0.538041741023125,0.572895002946247,0.595422524215245,0.513055803130858,0.455771581657609
-980,cane,12m,PO,0.556338523725693,0.493482424829978,0.531100542568563,0.565736754928763,0.579769451013879,0.505837756817437,0.499652181142728,0.546957008947736,0.682937314835975,0.559505802644831,0.650865326793883,0.690112914180295,0.49267580681627,0.543438792404341,0.536797701529113,0.571710758605041,0.595966115127867,0.512569882704053,0.457016119649559
-970,cane,12m,PO,0.557848677379091,0.497334393405648,0.527671436267183,0.568115985089132,0.581708158542773,0.512279919286594,0.493441512614266,0.542491996902965,0.684510769054733,0.55529280501216,0.648515771403109,0.687191903610244,0.497694708174252,0.544649788842753,0.5348977448022,0.568984731376476,0.596306661711744,0.511813411057603,0.458214626573234
-960,cane,12m,PO,0.559214741799912,0.500735045942812,0.524838638726785,0.57081091453085,0.584313140274549,0.518584373033772,0.488072586370576,0.537667593076613,0.687069016849072,0.551629532135772,0.644185231830514,0.683476830078872,0.502732620883726,0.545484200752658,0.532257073172374,0.564622191895696,0.595973815726398,0.510908596957982,0.459227037932805
-950,cane,12m,PO,0.560063588663977,0.503443899433346,0.52310426100016,0.573550787688199,0.587028901801072,0.524314454902185,0.483308580212499,0.532798874371208,0.690508179493285,0.548602520049943,0.639975013288228,0.679153356526047,0.507569970253618,0.545636599205799,0.529638998750975,0.559662419849634,0.594806886216928,0.509699782039566,0.460581669139702
-940,cane,12m,PO,0.559984748250793,0.505128515532015,0.521881243632515,0.576281293983593,0.589688123977397,0.528808765644967,0.47902979454073,0.528333909319811,0.694366551451428,0.54614570440489,0.636169235787102,0.6746532903831,0.511926639275853,0.544902779205042,0.526750273125271,0.554628092890758,0.592949919982472,0.508514339977271,0.462477512902423
-930,cane,12m,PO,0.559090906443663,0.505458584467492,0.52076209511722,0.5791226458879,0.592211931068312,0.531140337078976,0.475565128161497,0.524264752013215,0.698834315143176,0.544105730596177,0.632952664017566,0.67045277230289,0.515303310110378,0.543393227411802,0.52386703684388,0.550129737435589,0.590433796556737,0.507580403964117,0.464381424481886
-920,cane,12m,PO,0.557604714826608,0.504162634330667,0.520028650607469,0.581288995900019,0.594443020473679,0.532278972630467,0.472791749824321,0.520769854924702,0.704412035690217,0.542449720233758,0.62967906428345,0.66638024291841,0.517606626438483,0.541359358893184,0.521338956727613,0.54609733177418,0.587451970814503,0.507091734258905,0.46637472442475
-910,cane,12m,PO,0.555934208211519,0.501723244146398,0.51992024824383,0.583514258971306,0.596233580971369,0.532662694689213,0.470780631444814,0.517952942377923,0.710949211985823,0.54223644724863,0.626486522722458,0.662641723323407,0.518642608643277,0.539458610268558,0.519819340111923,0.541227874414981,0.584503342159759,0.506861024160301,0.468431101922444
-900,cane,12m,PO,0.554679429390187,0.498073330776461,0.520732867896895,0.585614583823387,0.597806458615424,0.531991068373477,0.470815763330878,0.515886476735458,0.71799637645994,0.54425884079767,0.622598726143592,0.65902380260459,0.518400826911073,0.538233077360747,0.519285057853986,0.536588196742614,0.581836538630007,0.506212300238439,0.470228688456822
-890,cane,12m,PO,0.554099130829993,0.493962604246402,0.522038561454369,0.586098104957248,0.599356663324409,0.529821276835405,0.472169277956321,0.514461157236672,0.724917733906941,0.548368492418382,0.618567204525952,0.654995021671799,0.517789706973515,0.537489564052579,0.519232571997569,0.532893715706975,0.579902644993747,0.505091931309006,0.471915679329391
-880,cane,12m,PO,0.554145845204851,0.489728375432931,0.523257369202669,0.584656312866248,0.600869459265297,0.526021898301474,0.474132487599772,0.514326964459066,0.731327796952335,0.553133717698483,0.614759924807741,0.65068506316817,0.516843803704887,0.537182408949584,0.519478557717057,0.53059723622456,0.578971598017437,0.503896100447092,0.473710117100825
-870,cane,12m,PO,0.554318317915029,0.485300668161429,0.524019994290995,0.580942581522332,0.602165159738098,0.520014521180757,0.475467465902426,0.515113335500507,0.737523296987379,0.557137067611414,0.61177885568217,0.646000450942955,0.516144421768188,0.537177542149841,0.52021936791354,0.530148301282358,0.578979056679217,0.502663652140641,0.476154692110531
-860,cane,12m,PO,0.554828906474107,0.480206636972854,0.524598496972778,0.576105988721127,0.603057292087011,0.513270831164207,0.476888212266442,0.516626392656095,0.742395113427591,0.560385282240652,0.608770972928892,0.641427141380429,0.515658826371021,0.537753858774419,0.52158642644161,0.531216912065498,0.57847157381951,0.501663743092763,0.479292709646172
-850,cane,12m,PO,0.555683646188911,0.474980155694695,0.525668148928589,0.572388054355571,0.603781716131407,0.504807896810254,0.479499748734489,0.519166365809018,0.746158509208605,0.563682566156299,0.60586980561241,0.63682831776418,0.515639407082391,0.539059559845559,0.523181451646614,0.533825415450838,0.57712722180514,0.500951627219123,0.483075995815092
-840,cane,12m,PO,0.55645032289386,0.469501400248809,0.526955879081346,0.569552830839779,0.603927011785155,0.495326963664356,0.482683568650363,0.521633230572185,0.7481998986671,0.567303985511402,0.603136713702342,0.632369843205134,0.516770093148466,0.541040010744504,0.525070943354835,0.539172716099955,0.575288550723781,0.50039334569994,0.487693307826777
-830,cane,12m,PO,0.55670189388541,0.464293298569634,0.528993087442161,0.567323122987797,0.603676684950725,0.484771059061443,0.486241069847091,0.523748557940033,0.7493026622032,0.571196804514905,0.600350805761158,0.628380187693049,0.518747765966003,0.543494447250109,0.527159240275828,0.546749643136498,0.572537192510968,0.50079361269494,0.493180349761025
-820,cane,12m,PO,0.556390569158454,0.460047220582805,0.531598271012974,0.567087027383848,0.603257941258821,0.473253024965173,0.489857500679257,0.525302070873852,0.749235023637841,0.575469837930911,0.597308239075115,0.625306235212523,0.520799577634577,0.546443639503215,0.52898472451205,0.554379804447837,0.568681147460009,0.501643897400128,0.499489721460907
-810,cane,12m,PO,0.556085256546603,0.45701893270012,0.534701819551513,0.567265235259094,0.602932364473736,0.461847170708264,0.493493019734241,0.526108152761692,0.748250899152552,0.580208388466934,0.593740223800143,0.623185148365162,0.522711817825804,0.549957261175363,0.531082761132463,0.561531564001258,0.56399740233977,0.503122968183992,0.506221564795956
-800,cane,12m,PO,0.556224190394869,0.454256752617789,0.538513476829327,0.567719666888862,0.602573826506035,0.451228679812274,0.496216105081253,0.526857203478059,0.746501476836739,0.585396653204409,0.589409967733842,0.621734455971509,0.525547153467869,0.554054891657801,0.533427457316082,0.567862272752616,0.558643090433221,0.505844806481099,0.513680585737406
-790,cane,12m,PO,0.556417892714826,0.45207139082978,0.542480276395826,0.568514206143325,0.60182216373193,0.441924303270756,0.49794094442974,0.527592450093678,0.74435202889722,0.590703316563812,0.584764804540622,0.620601773116716,0.529319911745076,0.558441219382916,0.53648339189536,0.573872275033027,0.552160008154688,0.510470265629557,0.521734223338582
-780,cane,12m,PO,0.55661460594174,0.450204544324529,0.54573538894041,0.569124760705715,0.600740961153677,0.43447039277754,0.500298055851754,0.528047581252438,0.742006120189114,0.596400575743789,0.579163134057165,0.619870019049809,0.533703649408324,0.562794902370447,0.539706488254369,0.579431440219819,0.545181508002985,0.51625823766471,0.529549202272879
-770,cane,12m,PO,0.556572312998066,0.449458210780229,0.547938711045047,0.568883006325601,0.599145340296497,0.429185513164201,0.503200266806983,0.527864978986607,0.740083784649942,0.602055783529409,0.571405180289509,0.619220070002625,0.537850659621656,0.566808157028191,0.542437987051229,0.584607985844382,0.538475217219508,0.52304236156397,0.536596787375108
-760,cane,12m,PO,0.556058996570774,0.449246745997559,0.548976627923576,0.568117877380055,0.597292944222216,0.426096291579207,0.506091219205381,0.52795583741872,0.737637035567422,0.607751735034857,0.561893235932363,0.618543229918227,0.541988704342054,0.570686110453148,0.544762591988738,0.589811901812029,0.531890374130176,0.530744325680992,0.54250125013437
-750,cane,12m,PO,0.555126006483648,0.449115875255801,0.549119247406916,0.56695078670248,0.595819873360431,0.42553346871639,0.509195689070137,0.528732659557207,0.734664801443659,0.613547610019588,0.551193008119034,0.617987832593607,0.546239210325586,0.574656643058844,0.546272187263931,0.594918467088973,0.525803111431751,0.538861119619582,0.547422732988428
-740,cane,12m,PO,0.553665582649226,0.449082340303157,0.547113182239748,0.564939369376441,0.594961003539667,0.426512004425401,0.512300732476969,0.52998049846526,0.731561042381591,0.619363488893812,0.540215785183351,0.61762919408331,0.550164069161725,0.578001929963068,0.5470398120031,0.599684952037449,0.520372681567504,0.547907171893051,0.551862276611853
-730,cane,12m,PO,0.552045740916244,0.449263058757138,0.543533083415027,0.561965566263312,0.594336954409894,0.428343380498316,0.515264020109899,0.531468045407499,0.727765657705994,0.625343373789556,0.527794640581295,0.617505854624394,0.553622462404008,0.580801504744996,0.547381763379008,0.603959902934661,0.515738741490187,0.557168142477821,0.556849029508916
-720,cane,12m,PO,0.550492707972262,0.449848792816296,0.538807994555608,0.558574594706695,0.593524632808731,0.430757941621102,0.516510495172334,0.533236187686057,0.721740039444362,0.630817689757817,0.515451954590968,0.61744425018852,0.557128672659346,0.583153604752188,0.547804427002399,0.607617541173177,0.511213778243229,0.566095521148959,0.562474923412199
-710,cane,12m,PO,0.549055914120689,0.450806820921988,0.533538455414202,0.555653102837401,0.593058719468703,0.433737131518097,0.516487276174728,0.534894766895176,0.714256345730503,0.635439512644149,0.503818880861478,0.617125677180099,0.560749454851232,0.584722364636392,0.547876444034527,0.610711661680252,0.50566355725374,0.574409362031081,0.567615330169763
-700,cane,12m,PO,0.548264729328199,0.451963053860352,0.528545760055849,0.553322062564801,0.592956787962623,0.437816413565377,0.514880310558219,0.536006905420811,0.706243312600925,0.638818896208251,0.493270690356003,0.616445420334376,0.563919177573843,0.585299879393758,0.54705564576654,0.613029536033939,0.499944272171398,0.581518749714804,0.572565749344533
-690,cane,12m,PO,0.548368732607804,0.453454025224655,0.524016564666758,0.551043072436454,0.593367468910743,0.441988955100826,0.512746466264365,0.536721818465096,0.698254537149108,0.641675059807971,0.484633624345771,0.61547685563117,0.56657231450337,0.585515274516419,0.545232988655564,0.614921978977968,0.494526396459871,0.587269209542061,0.577627680510849
-680,cane,12m,PO,0.54897773716861,0.455868834181602,0.520227046965965,0.549098657333586,0.594260470967177,0.445498126495557,0.510555028532187,0.537437791525695,0.691354821026807,0.644455534458108,0.478510177505,0.614254583340277,0.56857811723682,0.585289137102425,0.543481066545456,0.617024022041093,0.489531545324261,0.59209447386597,0.58235310795048
-670,cane,12m,PO,0.549802085341024,0.458543575789701,0.517220853212784,0.547594236659035,0.595558291172274,0.447398463163939,0.508656634902685,0.538376612987941,0.687085625199716,0.647345229304873,0.475441705750205,0.612553847773514,0.570252288006341,0.58463826277466,0.541637628972757,0.618394536648127,0.485540124279796,0.596065703664869,0.586473192445711
-660,cane,12m,PO,0.550814606750857,0.461023065561379,0.514904731178342,0.546464821468554,0.596680473343796,0.44846595471277,0.507504068012924,0.539740341439342,0.685316692942755,0.650287879000492,0.474652162826159,0.610338145527492,0.572001897469956,0.58377286862316,0.539006584064354,0.619557802656271,0.483180232628901,0.598903361977569,0.590928762862113
-650,cane,12m,PO,0.551832081491838,0.463076075916596,0.513212315129093,0.545997692696382,0.597725804774158,0.448711548583007,0.507455954164231,0.541783178017807,0.684584635133399,0.653285551294164,0.475744460224135,0.607878091911219,0.574014646087027,0.582991748377971,0.534139103917946,0.620149301163342,0.482121739709488,0.600473614569753,0.595394298328617
-640,cane,12m,PO,0.552392499687515,0.464031744957303,0.512350349559693,0.54604113585934,0.598580034221819,0.448475266506204,0.50974144561682,0.54418564380446,0.68474581119706,0.656292374540128,0.478587712111133,0.605113671016565,0.575996008243085,0.582105778946563,0.527863705282442,0.619490194983016,0.482192000506699,0.601129380268076,0.599936830645217
-630,cane,12m,PO,0.5519845346465,0.464116850775022,0.512390009820142,0.546706662535026,0.59947943692107,0.448337057626117,0.512567366420033,0.54694386370449,0.683558030940969,0.658795860106331,0.483051319872612,0.602259447579031,0.577267197551084,0.581168269035215,0.521529263926509,0.618042475107954,0.48354658971045,0.601147133213962,0.604579861923902
-620,cane,12m,PO,0.550534449912523,0.463498140971843,0.513646064624654,0.548013386110424,0.600563925977835,0.448635104783099,0.514575552198227,0.550735710578008,0.681203673572096,0.660251320358887,0.488312974577816,0.599444825163081,0.577331020089751,0.580118875585936,0.515446481805445,0.615539877626077,0.485873313606495,0.600520934472438,0.609151442114683
-610,cane,12m,PO,0.548600792448118,0.461887127076221,0.515482507838681,0.548984287109495,0.60208277383188,0.449138859129044,0.516326484780923,0.555297985580065,0.677659552328927,0.660672462016862,0.493404008161971,0.597121831523777,0.576331503238689,0.57940600313,0.508913215729385,0.611956994160333,0.488971412942273,0.59941971847381,0.613647209185164
-600,cane,12m,PO,0.546140737045451,0.459549618768713,0.517525731678591,0.549012553026763,0.604224667380796,0.449457373725113,0.517974553016201,0.560595005371184,0.67311354749234,0.660097659926213,0.498500745861299,0.595437081580652,0.574984380955358,0.578673966180713,0.50199639871469,0.607803195703453,0.492759981987035,0.597700987718732,0.61804274045328
-590,cane,12m,PO,0.543527159662701,0.457142116764781,0.520400482235337,0.547163185589365,0.606719998552533,0.449116469192521,0.519078687741247,0.566541134461438,0.667571330590879,0.65846534166823,0.502741809896713,0.593817212220015,0.573416155824947,0.577802867804208,0.495041489584777,0.603164567821637,0.497111923725063,0.595446795213293,0.622933024406157
-580,cane,12m,PO,0.540964921771816,0.454896135244648,0.523904621614965,0.544297667437054,0.609674701490376,0.448531452445039,0.519825402607983,0.572291822107027,0.661205426405598,0.654974538508781,0.505477712071861,0.592372177082192,0.571902773181944,0.576879909457615,0.488503193389517,0.598545961151271,0.501570537651849,0.592898354404198,0.62853460874771
-570,cane,12m,PO,0.538145688967404,0.452643230911134,0.528587182640936,0.540817423788659,0.61321901433626,0.44775684655702,0.520641879944597,0.577623200066483,0.653967522894835,0.650774285508456,0.506796007945747,0.591216955392916,0.570789499344389,0.575905278483016,0.482627577522087,0.593394873414588,0.505720572958624,0.590348580833385,0.634371998181466
-560,cane,12m,PO,0.534649295066535,0.451585674884346,0.534544012259933,0.537149939887656,0.61677784679064,0.44717510616611,0.520401538479783,0.582410806731631,0.646055690102711,0.646906144299137,0.50707604754977,0.590298028556402,0.569509523522315,0.574774951065225,0.477193379089995,0.588104183031071,0.509583851449737,0.587961607132582,0.640061649537523
-550,cane,12m,PO,0.530682890178135,0.452409990961833,0.541669683507929,0.532967453054739,0.620195379680425,0.44638034119409,0.519037175975815,0.586373321204693,0.637111968136438,0.643134979049268,0.505449186793115,0.589569632147821,0.568333227055334,0.573308285333109,0.472044421667994,0.582676997721789,0.513406713628131,0.585917916948828,0.645337627339975
-540,cane,12m,PO,0.527152109797104,0.454656453653712,0.549050844314472,0.528223377355136,0.623527424423177,0.445555867476055,0.51731880355711,0.589021387320202,0.626798151299452,0.63951966260396,0.502751107726976,0.588571161554716,0.566957930845459,0.571024282992988,0.467390015577605,0.577397173788938,0.517999147724835,0.584215114120432,0.650698051358659
-530,cane,12m,PO,0.524163049085003,0.45832117200974,0.556032201349356,0.522856391039552,0.626445994260754,0.444755218618894,0.515417184999411,0.59083555806936,0.614981846757722,0.636101926778011,0.49983444243417,0.586715932614832,0.565070943711883,0.568150587146646,0.46348231946566,0.572436776099333,0.5222339122466,0.583150132304023,0.655653897943294
-520,cane,12m,PO,0.52232570314247,0.463436264654785,0.561969746196963,0.516867799431141,0.62873799147018,0.443817265477249,0.51348439935966,0.592304881002666,0.602292960933439,0.633324538580275,0.497606612926632,0.584142135394349,0.56241276380463,0.564823957203936,0.460451980665771,0.568201563713849,0.52659642419115,0.581956994385229,0.659416295738292
-510,cane,12m,PO,0.521294798987379,0.469912648408731,0.566457092443275,0.511212572623074,0.630527582031723,0.442560210609591,0.511595199820985,0.593232099032633,0.589665797213355,0.630550733188364,0.496275244090675,0.58103449225933,0.558760969539407,0.560834320541958,0.457722250614303,0.564788801613413,0.531366005608446,0.580681764812089,0.661730635884747
-500,cane,12m,PO,0.520823515176802,0.47754169967268,0.567962176616165,0.505605325613072,0.631568984743035,0.440544793839564,0.510141162005947,0.593569339768531,0.57715468107931,0.628326036175759,0.49509156812179,0.577347620098029,0.554321565398983,0.556233676107861,0.455005196942053,0.562002291803748,0.535665346527019,0.578901989097984,0.662192576212379
-490,cane,12m,PO,0.520810362411428,0.485660643528944,0.566947993097521,0.499693285631762,0.631850544077817,0.437154764916547,0.509480188905835,0.593466048129631,0.565046842304627,0.627390917069989,0.49392157248859,0.572735987641826,0.549655348490022,0.551355000319798,0.452653314889206,0.560399020933702,0.539351562204188,0.576762180341182,0.660039286837141
-480,cane,12m,PO,0.520724106579098,0.493163301855075,0.564523680576145,0.493584349143177,0.631563923740535,0.43227781335276,0.509976381450846,0.592995850182813,0.554286122598878,0.626860660771377,0.492228793262172,0.567730142580597,0.545370363560057,0.546162010194835,0.45057088469552,0.55892159260318,0.542908304661603,0.575071083040256,0.655988316788491
-470,cane,12m,PO,0.521138458077083,0.499764936020479,0.561793473083392,0.487230707136033,0.631055034988406,0.426777284436006,0.511135992709749,0.592157783738332,0.544429519062617,0.625850435775027,0.490184764093626,0.563227080617159,0.541050979510092,0.540917339064548,0.448602572960653,0.557107552543875,0.546558848531876,0.573534979822638,0.650911204217137
-460,cane,12m,PO,0.521668424466244,0.505646173216891,0.559755433608208,0.480654889974182,0.630115212257496,0.422497730391736,0.5142631382336,0.591050083931802,0.535545865935012,0.623881670248683,0.487761990324057,0.559547032914609,0.536347607821734,0.535712787540595,0.446792579557561,0.554628105657358,0.550773790089897,0.57150850563224,0.644789177416159
-450,cane,12m,PO,0.521964652929567,0.511312200087592,0.556703086156265,0.474646029202255,0.628755085684185,0.419638794099781,0.519591855337093,0.589948073749765,0.527349724646191,0.620831472264157,0.485171695886978,0.556838551250549,0.531711284797558,0.53048473886972,0.445389857856211,0.551884782907283,0.556024731762458,0.568751822784114,0.637475458747593
-440,cane,12m,PO,0.522895090474678,0.517294357649455,0.552463276868451,0.469698961643269,0.626997823632019,0.417774632487177,0.52650005175707,0.58937569553182,0.520345424044688,0.616625678375081,0.483076164112193,0.554784384701176,0.527813366508496,0.525653216916769,0.444320685184704,0.548980905490761,0.562776282470968,0.565202029580302,0.630164257092204
-430,cane,12m,PO,0.525178169251345,0.523897161648049,0.547393810828555,0.466265900712773,0.625153522032124,0.416460451325422,0.534101875761574,0.589177662057788,0.515238013931972,0.611620207545936,0.482242359344522,0.553458510737863,0.524972088932108,0.521864881801206,0.44350488665869,0.54595639332169,0.569731210179835,0.561172932185173,0.623184448943532
-420,cane,12m,PO,0.528974810129243,0.530690434121247,0.542972579997199,0.464938881647497,0.623161039921429,0.416373018352641,0.542114227498333,0.588791412457097,0.512007737435249,0.606825270809867,0.482125977667286,0.553120450565598,0.522035481037221,0.51896171492408,0.442830548813775,0.542931202179422,0.576781126765082,0.557170975353889,0.616389360885999
-410,cane,12m,PO,0.533940757050354,0.537968782791069,0.538131989112994,0.466659278929538,0.621453640119501,0.417928136962301,0.551057019868627,0.588657312242784,0.510556706166549,0.602456327753431,0.482612162805451,0.553338579277756,0.519425875135454,0.516547219636233,0.442317492649377,0.539961858861661,0.583313826402404,0.553396246549935,0.610239835167654
-400,cane,12m,PO,0.539061984121124,0.545223145649419,0.531740126627682,0.471685706232209,0.620194949449148,0.421297487449417,0.558712960528869,0.58875665196016,0.509994498243158,0.598817411420961,0.483424202315864,0.553797234759656,0.516528802634289,0.515064301483246,0.442374953769011,0.537411769493702,0.589021743705814,0.550115911186906,0.604871021332891
-390,cane,12m,PO,0.544341715718382,0.552355148367002,0.523715414530727,0.47837847742472,0.61951401285349,0.426527034242972,0.563042455778913,0.588875822002563,0.51070915622476,0.596360681415817,0.483934431358451,0.554637580900422,0.513221896738452,0.514093606256171,0.443990660522803,0.535482137346216,0.593561999851373,0.546344114373048,0.600669373397222
-380,cane,12m,PO,0.549520139841052,0.558256362594624,0.514145489763655,0.486350876024666,0.618658686501633,0.433266066167533,0.564923567993447,0.588840017933713,0.511334398338892,0.594903478332741,0.484000971355659,0.555915447734843,0.509946461605917,0.5139770769559,0.446887690797959,0.533518009382825,0.596677133090863,0.542915361542414,0.597505118967894
-370,cane,12m,PO,0.553542788602553,0.562451771700423,0.503472524538852,0.495178005832165,0.618189583881433,0.440711661140806,0.564923293649028,0.5888097192797,0.51061448942899,0.594344769222859,0.483676086226629,0.55755521215697,0.506782727955256,0.51475320891654,0.450625517376516,0.531522881969426,0.598380561325406,0.539915108031181,0.594495248681527
-360,cane,12m,PO,0.556432819969385,0.566052072950135,0.493446748808432,0.50464310499544,0.618309379245665,0.447937739470766,0.563225950880886,0.588966631523607,0.507358448899552,0.594852407279672,0.483166571041467,0.559451149666026,0.504278445718222,0.516703453871221,0.455590982087455,0.529054712682057,0.598602393423111,0.537293536664749,0.591406814323579
-350,cane,12m,PO,0.557809614542858,0.569710585789003,0.483568106505554,0.51422400501268,0.618796615537695,0.454589542470378,0.56092434105343,0.589455060007978,0.503046823990845,0.596679066266252,0.482472010948649,0.561578719330303,0.501726490555823,0.520175944754954,0.461510575227875,0.526504858617285,0.59725232125758,0.534975049819992,0.588091761149535
-340,cane,12m,PO,0.557821262631186,0.572887631362983,0.474824638199632,0.523299421046136,0.619048063077019,0.461486605930598,0.558426134151884,0.590374877292224,0.497905116798213,0.599511658033323,0.481397546681427,0.563881977538601,0.499407916903894,0.525032262339619,0.467886784582018,0.524109570062262,0.594615785476056,0.533049506245557,0.585088992985994
-330,cane,12m,PO,0.556917786492728,0.575471583747783,0.467338188330026,0.532653982073602,0.619306882423065,0.468276088373632,0.555866216418026,0.591541476233301,0.492442198265668,0.603138657212305,0.479542742592388,0.566351011071557,0.497405865576317,0.530731529957955,0.474896072395886,0.522213052042378,0.591517764429428,0.531675298594703,0.582641138017417
-320,cane,12m,PO,0.555999655453862,0.576685742152471,0.461281466905195,0.542424346561733,0.619507703974937,0.475057376511366,0.553174461608048,0.593473514201324,0.487048613490351,0.607617806727498,0.4764849855426,0.568480809489094,0.496736187991622,0.537081983307524,0.482303895225499,0.521245709950994,0.588203159205182,0.530699756403165,0.581100450197141
-310,cane,12m,PO,0.555660367846743,0.575865915216611,0.456300386903302,0.551978860743438,0.619860708151654,0.481405879378689,0.550078027849756,0.59610914779832,0.481477243970981,0.612635724409217,0.472482698796783,0.570122476449922,0.497022016608559,0.543979394413443,0.49006159611211,0.52141335424777,0.5848201520778,0.529369539445893,0.580045256457545
-300,cane,12m,PO,0.556087199208982,0.573390299465288,0.452118311668607,0.56103963100894,0.620009407847257,0.486850833991602,0.545946514708032,0.598185535255978,0.475515018533175,0.617486265316057,0.466798368605851,0.57080025585714,0.49851489823745,0.551257122364222,0.497325745332692,0.523047132734361,0.581551016894163,0.527406144649017,0.578685697690506
-290,cane,12m,PO,0.557574880838228,0.570335033459561,0.447167558918876,0.569453465547522,0.619566611975819,0.490717263235848,0.541466297640308,0.598784623052248,0.4687284335044,0.621637131770119,0.460608868934774,0.570282266507281,0.500844336679718,0.558054384881728,0.50386404526371,0.525152177049785,0.578469957184904,0.524590912976366,0.576872908348407
-280,cane,12m,PO,0.560189163277938,0.568743468961114,0.440933739010605,0.575621385071897,0.618797229890449,0.493542456958854,0.53690785960893,0.597857530480157,0.459862308634079,0.625775069840871,0.454429840929701,0.568470305598499,0.50301321754183,0.56356771914678,0.510003320129313,0.527740854738614,0.575527445429131,0.520818461329741,0.574212074843187
-270,cane,12m,PO,0.564199743200854,0.568486386319117,0.434683965331432,0.580467407518539,0.617873977480325,0.495850755481276,0.533149731790249,0.595714777017398,0.449211583972864,0.62983892265055,0.448568456027513,0.565532772129294,0.505394443817958,0.567836179916214,0.516136719005968,0.53098353950453,0.572387759335006,0.516666308035736,0.570701279376848
-260,cane,12m,PO,0.569400826644511,0.568538999459877,0.430338119378585,0.584953915669887,0.616554754529821,0.498025124318342,0.530833464847302,0.593033105813076,0.439176962568649,0.633007228508416,0.444471999545657,0.561626359538865,0.507244109505181,0.570646342215615,0.521428377767193,0.533570689012036,0.569097703874401,0.512569919293276,0.566608322597359
-250,cane,12m,PO,0.575278020229836,0.568949493241782,0.427945674067823,0.58940242590891,0.614760932715753,0.500236305217597,0.529756867981304,0.590192344022347,0.431219259050124,0.634426853464219,0.44145819628083,0.55656007652747,0.508027864993708,0.57249104272245,0.525485237435169,0.535494796318789,0.566951226257699,0.509070090891985,0.562200156491737
-240,cane,12m,PO,0.581688942323285,0.569807938512037,0.426379701453454,0.593658743525952,0.612234979845159,0.503014481989036,0.52941015166228,0.586863207492126,0.425350826958058,0.63373960446871,0.438285036563442,0.550548748671948,0.50842342048375,0.573821682403885,0.528077695948392,0.536796948054192,0.565227669927767,0.505943473926246,0.557924007774037
-230,cane,12m,PO,0.588478836886346,0.570916842830406,0.425261015744023,0.596816611680004,0.609446978421132,0.504882206267481,0.529580945680728,0.583153231911808,0.420958560778598,0.630794689251976,0.435413126412643,0.544315289777083,0.508819998484214,0.574652225703178,0.529818385870349,0.537011008685227,0.563505952126572,0.502798087103027,0.554160098384266
-220,cane,12m,PO,0.59536494234314,0.572243052290763,0.425472098894771,0.599506610292057,0.606723060284395,0.506807864211419,0.530271036665325,0.579830019776955,0.417237682661726,0.625964380505494,0.434643476903262,0.538393824746617,0.508764622602602,0.574986834866659,0.5311179159317,0.536068212023798,0.561771757502123,0.499110048348572,0.550787520622284
-210,cane,12m,PO,0.602372936277216,0.573132869352941,0.42884859167367,0.601247051167672,0.604118682974086,0.509593919272253,0.530865342140671,0.576972298616754,0.415037465689288,0.619795025343855,0.436278994642831,0.53290640719625,0.50849387544715,0.575051227968075,0.532005997450058,0.535299909022248,0.559867115429676,0.494896384193448,0.547465587528458
-200,cane,12m,PO,0.608919194665131,0.572830182198948,0.433841650412391,0.602261786905423,0.60167706160458,0.512088342213575,0.531323906753133,0.57442953915233,0.414133712100201,0.613589422352472,0.440028897181858,0.527896672400063,0.507924984610599,0.574671567449932,0.532493226221029,0.535497014964045,0.557561971576349,0.490590002389139,0.543957518668496
-190,cane,12m,PO,0.614072987101082,0.572112048853319,0.439553145417829,0.60326204514094,0.599489344330992,0.513495367347543,0.531804436745852,0.571827670789941,0.412938313059153,0.607398681491495,0.445914956141028,0.523678179026778,0.507450906004586,0.573624622153723,0.532694028530947,0.537110490888856,0.554591509980978,0.486348297128247,0.54010873752745
-180,cane,12m,PO,0.617313030751716,0.570587046383415,0.444512694286204,0.604050977185716,0.597564912996547,0.513989674357817,0.531527172874121,0.569561133189301,0.41155224960534,0.601110180321289,0.452901063296104,0.519800307085279,0.506530092932609,0.571407466667646,0.532271786067781,0.539947593961775,0.551637918081312,0.482195427385282,0.53591185297348
-170,cane,12m,PO,0.619118757603613,0.568522117697432,0.449842756293846,0.604328642274467,0.595616505520555,0.513619941732287,0.529240728090191,0.567069031418145,0.410568097854432,0.59479639070262,0.460288261838757,0.516195409217849,0.505767138114792,0.568533740329112,0.531510919742812,0.543979398686933,0.548943607469562,0.47811500578411,0.531699283266816
-160,cane,12m,PO,0.619760675907993,0.566323913974542,0.455781829001956,0.603605960963369,0.593040492093699,0.512108810571956,0.526335772344893,0.563990096243316,0.4107378268686,0.588098211959521,0.467303684621407,0.513205106968031,0.505263989610042,0.5650164737176,0.530372921434662,0.548363993866426,0.546916942434528,0.474216007209788,0.528070413976366
-150,cane,12m,PO,0.619207530362154,0.564583318068289,0.462181861555389,0.602950555024825,0.589347019293486,0.510389276486576,0.522279439911674,0.560782232123723,0.413748237105189,0.580728533674128,0.47358069731428,0.510984747222769,0.50494236194151,0.561174868296325,0.528779573184577,0.552825404924811,0.545177235296172,0.4709386805315,0.524573763655678
-140,cane,12m,PO,0.617668545470468,0.563839505457854,0.468727211324987,0.603040303933886,0.585021117853247,0.508402717473473,0.516848311019783,0.557261191515114,0.419623065340745,0.573199831087126,0.478735534876851,0.509734968612754,0.504444039602877,0.557263903857998,0.526132487110105,0.55665973666404,0.543138924813702,0.468538652845586,0.521830314633512
-130,cane,12m,PO,0.616236639811368,0.563628580632931,0.475553839244043,0.604197401423408,0.580285630606433,0.505185371017176,0.510102295191593,0.55379631588802,0.42705901485517,0.565287566838186,0.483451886852205,0.50941067439881,0.503092806153689,0.553787693311007,0.522332076408687,0.559874985071597,0.540630493833345,0.466982502845833,0.519760660575337
-120,cane,12m,PO,0.615414877865613,0.563433823587343,0.48270300081581,0.605934887130041,0.575317835910157,0.500253032013287,0.503227605053725,0.550145672764077,0.436127172887927,0.556949626726202,0.488674034964261,0.510080589852699,0.500971270739332,0.550587169382365,0.517434680109662,0.562392858235923,0.537230843061697,0.466266841318631,0.518040856219179
-110,cane,12m,PO,0.614819810649204,0.563390005300679,0.490967246335963,0.607588479383993,0.570426256736596,0.493979350674843,0.496780540882241,0.547229560673425,0.445553882212478,0.548502929892043,0.494133763279609,0.511547151696827,0.49953082993772,0.547717492540564,0.512298117256739,0.564075598032793,0.53334046655566,0.46605410775153,0.517063350695517
-100,cane,12m,PO,0.614369722128314,0.563375010019822,0.501252386340867,0.609064847937451,0.566090931490541,0.487502762527606,0.490988693286057,0.545298337161056,0.453619458748418,0.540435199886678,0.499235076841005,0.513806187941072,0.498897710525847,0.545233939821207,0.506949459725186,0.564558598212134,0.529589223364144,0.466789513677883,0.517435960230354
-90,cane,12m,PO,0.614187521916957,0.563471190368541,0.512489432109069,0.610138080754401,0.561971072017571,0.480300586829975,0.485511445853598,0.544035571687788,0.460436141829522,0.532624666253413,0.50528080565483,0.516253723726065,0.498399255439819,0.543030503518336,0.501007876693259,0.56407040384244,0.52596348445153,0.468163366852929,0.517986347299739
-80,cane,12m,PO,0.614041200710602,0.563186777823776,0.524304281376626,0.610302498747719,0.557477304055312,0.472106801894564,0.480073439338312,0.54341759480463,0.46678562243781,0.525023286190832,0.511015777001942,0.518883961706054,0.498148566566061,0.541150452891123,0.494902864877364,0.563248955932534,0.52322825823541,0.469988157505774,0.518342213794512
-70,cane,12m,PO,0.613328418837208,0.562369474455429,0.536090260905861,0.610161548834186,0.552974593495118,0.464344902129173,0.474981750967622,0.544277311017112,0.473514511464631,0.518216828934472,0.516167172993025,0.52178913103149,0.498942281479571,0.538950130623075,0.488815291095035,0.563797658393641,0.522052497242028,0.472016411543792,0.517796851959965
-60,cane,12m,PO,0.612471179622405,0.560872115609612,0.547280657512257,0.610326492341143,0.548531642649403,0.457657043937976,0.470381480302516,0.545972600682878,0.479791301183114,0.512299818816729,0.521798935163754,0.52478135607194,0.500927105381121,0.535574355775629,0.48247532627804,0.565357848971518,0.522161893942879,0.473892844943405,0.516190224883904
-50,cane,12m,PO,0.611668132957773,0.559088100128013,0.557555747638111,0.611152658293152,0.544110060022397,0.452721798099848,0.467830639595463,0.549355553389215,0.485698570777842,0.507116511559036,0.528145747733206,0.527541435876082,0.503830728569386,0.531894473095594,0.475870787585252,0.567559817226646,0.522220680996676,0.476036332013654,0.514388788231528
-40,cane,12m,PO,0.611380947441649,0.556926699239784,0.567048582580698,0.612952121301236,0.540210983277169,0.450342943440187,0.466262043668811,0.554403601924951,0.491366146599852,0.502671407545411,0.535424688330008,0.529827006825075,0.507572014084212,0.528660665896905,0.469769095116586,0.570141162560488,0.521811157035665,0.478268123225331,0.513056354051712
-30,cane,12m,PO,0.611247684204962,0.554357310025761,0.575465936862776,0.616009072655629,0.537159625355031,0.451256013587658,0.465799541834152,0.560196424320497,0.496608474677303,0.498696210780207,0.542888726119365,0.532004004711382,0.512985402764415,0.526088942687922,0.465065545735588,0.572913802436149,0.52082749908469,0.480580605112193,0.512362629674203
-20,cane,12m,PO,0.611062370642759,0.551455598330929,0.582239660118012,0.619321623912236,0.53456641282865,0.455020637919191,0.466008760326239,0.566270981798041,0.501679240043456,0.495138199497802,0.548979126359592,0.534386512037061,0.518745122462521,0.52382006395811,0.461398763772639,0.575845317121715,0.5198003037025,0.48298620305466,0.51156616205546
-10,cane,12m,PO,0.610808483042267,0.548038557921991,0.587824284479929,0.623333041869808,0.531903612262059,0.462154581397462,0.46571565839149,0.572141644271691,0.507851154611221,0.492051651530552,0.5532945843759,0.537216364093482,0.524038916835452,0.521755768060081,0.459322426907231,0.579203569297285,0.518766450602192,0.485532482405783,0.510603377437087
0,cane,12m,PO,0.610820399228516,0.544100445919466,0.593650993151226,0.628428146950991,0.529303313151711,0.471225589817314,0.464452015084696,0.578029999242374,0.514540655659876,0.489569189364305,0.556076660588878,0.54001560716995,0.528003520682914,0.519746947866383,0.458999123968246,0.582977441564759,0.517760570321224,0.488263837593069,0.510032883911841
10,cane,12m,PO,0.61064096810933,0.539466902214465,0.600459600477711,0.634071885426803,0.526808656457876,0.481302880425256,0.462225231257487,0.584046353001712,0.52063764669457,0.487608284005139,0.557763562583366,0.542327541690282,0.530310489209905,0.518174078692996,0.460134273290753,0.586767444258787,0.515924377810739,0.491118373411372,0.510388420996417
20,cane,12m,PO,0.610403222449311,0.534722292341302,0.608170581825387,0.639691562676983,0.524976836168091,0.491499550993939,0.457206976103087,0.589612471630118,0.525834325002574,0.486486201408387,0.558375438873144,0.544088078346877,0.531142088006679,0.517271200270428,0.462081321075769,0.590270534859624,0.513874255313384,0.49407442294593,0.511385956875965
30,cane,12m,PO,0.609825735642979,0.529978767330161,0.615223630172081,0.646654480351418,0.523990852432723,0.501490147942111,0.450470102451968,0.59394421674677,0.531332091195747,0.486425926656325,0.557944506258681,0.545507790083447,0.530787961093031,0.516612886530212,0.463934652543289,0.593342623643383,0.512272247776475,0.496799275187498,0.513784093990662
40,cane,12m,PO,0.609287444142072,0.525363355269801,0.622664001832533,0.653017931290564,0.523838007175962,0.511849645281456,0.441550737852498,0.597197031754983,0.536671739817821,0.487508032714277,0.556958625221733,0.547219272645815,0.529760349346696,0.516097859228863,0.464799381200483,0.595496791160995,0.511853514987058,0.498945243277714,0.516845224145857
50,cane,12m,PO,0.608662048462097,0.521283120006445,0.630070881782577,0.658017888993771,0.524385703209004,0.522032782185437,0.429953477808426,0.599537010998309,0.541063270681877,0.489591298256404,0.556077109764622,0.549733727718001,0.528379588514047,0.515809730951748,0.465464030069247,0.596278570289675,0.513654119623586,0.501091161001423,0.520094520743047
60,cane,12m,PO,0.60798031616729,0.517705237681633,0.636668160777412,0.662837804220971,0.525441320512487,0.531642842747171,0.418137334305353,0.601100797264191,0.545381824112909,0.492788442175027,0.555202206263976,0.552913275839175,0.526541536622208,0.515366578416475,0.465618094968571,0.595655464479917,0.51835616195602,0.503135947054283,0.523295938969043
70,cane,12m,PO,0.607374073895901,0.514446084494193,0.641828384769463,0.666947506676805,0.526924018306126,0.540604992255331,0.407927561248751,0.601953063269101,0.551060890557563,0.497049617351756,0.555126438098838,0.556401957290761,0.524447093262305,0.514561437269683,0.465540053616171,0.59392513501292,0.524461538486704,0.504731309524975,0.526260809057265
80,cane,12m,PO,0.606829375957687,0.511485163875646,0.645567412344331,0.669599986524406,0.528682376381904,0.549025316693868,0.400544676764265,0.601711971808602,0.557586376128357,0.50213365141865,0.555848341074707,0.56012911021914,0.52150779163783,0.51360049550992,0.465869338347302,0.591576436136071,0.531533213348178,0.506510704850874,0.528569874030692
90,cane,12m,PO,0.606285049540903,0.509023219777725,0.647898589117293,0.671319863126652,0.529874111941701,0.556905569789277,0.396443566359358,0.600611237892072,0.563707438516445,0.507804500697025,0.557244808214702,0.563994726558817,0.517810658126062,0.51329472839838,0.467367322407888,0.588139623447716,0.538698065130586,0.508576667118737,0.529648818575931
100,cane,12m,PO,0.605311614617131,0.507126876532416,0.650048712252194,0.672447260052334,0.530428801611498,0.563509108324064,0.395586220832054,0.599615290331893,0.568364496674045,0.51374982684658,0.55854245223951,0.568089407907827,0.513460031401272,0.514325348419646,0.469381135526914,0.583339494655944,0.545676254485233,0.510733684146689,0.52900193423775
110,cane,12m,PO,0.603660673789943,0.505698903882527,0.6526508852311,0.672684204883573,0.530580863705964,0.569148685148538,0.398043164474953,0.598380570699574,0.571065742627643,0.520123223021352,0.559168917572745,0.572072171451058,0.508510629369117,0.515149257664168,0.471161232592624,0.577135856464224,0.552361485460871,0.512334218021536,0.527092253599873
120,cane,12m,PO,0.601634198118404,0.505853171693669,0.65505459474256,0.67208142497391,0.530763963070041,0.574455137742501,0.403441999140772,0.596946511150881,0.571562090164049,0.526658084261664,0.558813384998594,0.575757322139682,0.503218898085202,0.515331731162161,0.472476649007175,0.569676077707658,0.55841944017169,0.513262623457072,0.524054272945811
130,cane,12m,PO,0.599094923734418,0.50754331089805,0.657264883729119,0.671190007734971,0.530897880170632,0.579913722598055,0.411448359993756,0.595122038642997,0.571878522070855,0.533332144167526,0.557566159301635,0.579291620006147,0.498520208863769,0.514963606174929,0.473140353211697,0.561133355204285,0.563566207307997,0.513345886126053,0.520219215297986
140,cane,12m,PO,0.595814303339594,0.510218467170222,0.659819370487293,0.670814460261503,0.531234499967623,0.585451237407753,0.421327419242406,0.592585690837577,0.572302946905819,0.539827608154707,0.555567642935475,0.582319843723478,0.494550142917806,0.514159799694021,0.473140110997161,0.55202139843812,0.567608604950019,0.512887047235938,0.515545982546937
150,cane,12m,PO,0.592431794873549,0.513574921708177,0.662660474554736,0.670168296672385,0.531454420370859,0.590575019611225,0.432465869565333,0.589014958608299,0.57360806208144,0.545716602259407,0.552697962004925,0.584714077461672,0.491873299138381,0.512845356056424,0.472467100217866,0.542859340367111,0.570478863427149,0.511807195120825,0.510527272300291
160,cane,12m,PO,0.5894040148281,0.516547371251339,0.666340105214425,0.668859479545931,0.531504329903807,0.594882593503938,0.444685914580682,0.584923075005427,0.575497843411628,0.550821248848732,0.548594727240969,0.58639949952135,0.490984624002498,0.510586685481449,0.471326653590689,0.534449071688095,0.572109146127641,0.510091972606656,0.505606929773002
170,cane,12m,PO,0.586215787136667,0.51896126794675,0.670944660982255,0.666253750881547,0.531424662617017,0.598348166611431,0.457417010656686,0.580556974191336,0.577916344046672,0.554810436176332,0.54329614975431,0.587634998264655,0.490425739482508,0.507509549437793,0.468920073446738,0.527341402567501,0.572945629123918,0.508348882099294,0.501112560986584
180,cane,12m,PO,0.582680132424541,0.520992440459222,0.674365074238507,0.66308174486199,0.531244974194024,0.599958209475498,0.470243635144895,0.575841609434015,0.581426906037573,0.557659270616793,0.53736867853186,0.589194005500286,0.489947950789455,0.504385721181492,0.464961731371485,0.521213285124402,0.573477700129594,0.506671808087078,0.497424560435451
190,cane,12m,PO,0.579165327117624,0.523100293329216,0.675948655374946,0.659422160776024,0.53103262698357,0.600864837940931,0.482852382342524,0.570812116172537,0.58614070409529,0.558691313603372,0.531336261353345,0.590907155719815,0.489117435805862,0.501071043214095,0.460227663320347,0.515599200477796,0.5742918651187,0.504975173075823,0.494786007848436
200,cane,12m,PO,0.575743675005404,0.524770951078494,0.675627793241687,0.655048599942231,0.531421480796035,0.601687011213647,0.495142267935682,0.565972703896504,0.59290632927898,0.557870414848601,0.525525150166726,0.592810678374867,0.488111439597663,0.498137740479822,0.455173570496667,0.510818533973216,0.57523339341009,0.503596912788223,0.493452080076305
210,cane,12m,PO,0.57245891394797,0.52621853798487,0.67307210593233,0.650036924185273,0.533069769822221,0.601977078499062,0.508136624297412,0.561890154894617,0.599761634225889,0.555121249312538,0.520543301446687,0.59447873063138,0.486993426006493,0.496170629651904,0.450299813827637,0.506970012268536,0.57608616472148,0.502367240058826,0.492685287297708
220,cane,12m,PO,0.5688594568787,0.527414972656855,0.669143367885459,0.643594924871789,0.53625414180277,0.601756180180162,0.522102522906645,0.558973584112792,0.605862759541735,0.551253765722321,0.515829211708991,0.595692691375096,0.485577775825053,0.495448056514995,0.445715465230738,0.504491610057105,0.576868760773023,0.501469900361866,0.492637655263378
230,cane,12m,PO,0.564983344698352,0.528255120788003,0.664166584790784,0.636142666508634,0.541454343016772,0.600881168196858,0.535718473116342,0.557158206672595,0.610958421170495,0.547300204517985,0.510748111739221,0.596392580983387,0.484102912416552,0.495929949899081,0.441797793692056,0.503588564760397,0.577091352464464,0.500760614713639,0.493463893247578
240,cane,12m,PO,0.561248812676879,0.528330040808447,0.65750995946573,0.628506327210637,0.548440654713253,0.598587312013124,0.548126938659291,0.556056910984287,0.614658968941438,0.542901835116248,0.505283352288318,0.5970468803216,0.482517472676784,0.497302575243123,0.438622460994838,0.503855503696667,0.576417910983102,0.49980275196818,0.494236511313207
250,cane,12m,PO,0.558156355562324,0.527407350902313,0.649688836525222,0.621101924088614,0.556767273849315,0.59528407920811,0.55834837125718,0.555594453856064,0.616558034376423,0.539045813380713,0.499677639524863,0.597595997979312,0.48071047240289,0.499737133815709,0.436239374137527,0.504976746115723,0.575415950140138,0.498431701530119,0.495134035473929
260,cane,12m,PO,0.55523148301173,0.526443345391466,0.641520826842275,0.61506981478996,0.565501918798339,0.591632734041085,0.565490871147902,0.555389226149655,0.61682639532576,0.536534247420702,0.494043653161782,0.597518730574232,0.478642416633736,0.50280728850752,0.434541052094021,0.506459417168013,0.574262860005544,0.496639025017734,0.496712307343241
270,cane,12m,PO,0.552644673352006,0.52507730497571,0.633854825592942,0.610032383304804,0.574150166666264,0.587388827142496,0.569911051383379,0.55578170949794,0.616080356576966,0.53517496223076,0.488127851609145,0.597169540639702,0.476276738260242,0.50603352110728,0.433449161970192,0.508359415640115,0.573002022989689,0.49464982586492,0.498925602013423
280,cane,12m,PO,0.550508386126664,0.522642345870998,0.626868633890926,0.606049159664631,0.582299701717116,0.582827448275819,0.572959168239729,0.556301392191691,0.615698415171496,0.534653969578701,0.482003485736751,0.596670565919829,0.47346034924058,0.509062903449451,0.432744947982053,0.51038636435789,0.571649744740322,0.492258504269805,0.501850495289205
290,cane,12m,PO,0.548633617306643,0.520328735910154,0.621451641674923,0.60323710850138,0.589372565626065,0.57802621408035,0.57545096268207,0.556485284753003,0.615337467632853,0.535267064507831,0.474970885246756,0.595761457396179,0.470039482941625,0.51160331822972,0.432706338849891,0.512387802367926,0.570337667218454,0.489579365138708,0.505154834607133
300,cane,12m,PO,0.547476157934946,0.518367703139515,0.617745114437293,0.601255492250598,0.595560629861861,0.57325830965651,0.576462262316949,0.556636050254316,0.615365830468736,0.536549672204707,0.466779632479528,0.594530657797304,0.466385098212801,0.513324483367479,0.433615142015857,0.51526376505398,0.568845082387814,0.487531488976913,0.508631182643147
310,cane,12m,PO,0.547326594744502,0.51629104160711,0.614822564774024,0.599396897820012,0.601141253158321,0.568207549630989,0.577003391478034,0.556135866734171,0.616203015992719,0.538044044476263,0.458764821539014,0.593483585520009,0.463126809048734,0.514139141897184,0.435440576467914,0.519787937783068,0.566939675415919,0.485420485985026,0.512658296587544
320,cane,12m,PO,0.548368801347276,0.513534960710227,0.611930704871884,0.59692111093662,0.606599012572287,0.562558998735955,0.576795201518676,0.554840580447112,0.618214549803902,0.53869315493023,0.451446045602891,0.593198785457784,0.459900304188789,0.514374861691229,0.438193011179473,0.524691916704149,0.564660188368865,0.483367540980153,0.516868483715172
330,cane,12m,PO,0.549686248811325,0.510016007786759,0.607715241327561,0.593428122258267,0.611499460632578,0.555702836378349,0.575521170438258,0.552929658411287,0.621200895589043,0.538783893705843,0.44546004499624,0.593850338182895,0.456783996058842,0.514145140355268,0.442501260793383,0.528943789177588,0.562891402873353,0.481555950173197,0.520176238259403
340,cane,12m,PO,0.55084539983358,0.506133779915927,0.602488484275507,0.588893439793993,0.615763377341874,0.547327306061668,0.57280102912224,0.550306338389925,0.625009497178868,0.539107268388531,0.441315936779154,0.595809513633646,0.453604181940626,0.513256193475484,0.44730588251316,0.531463705792704,0.561874450750165,0.47987467864982,0.521691036347821
350,cane,12m,PO,0.551883272103573,0.502180110049384,0.596136532724879,0.583197276511857,0.618832036875929,0.537790903046862,0.567865241306377,0.547463460661603,0.629217772958191,0.539518492610211,0.438948483665188,0.598733018250814,0.449666155611061,0.51190241351666,0.452074893320862,0.531381851384691,0.561280770109784,0.478478646972792,0.521071549010681
360,cane,12m,PO,0.552350038060775,0.498589589912236,0.58843767849372,0.576682364609915,0.620297827725135,0.52730084187628,0.560805190740827,0.545085053433395,0.632903704645146,0.54051385124391,0.439683029266269,0.601911283816463,0.444546473692065,0.510362134593741,0.456973424018472,0.529920750748953,0.561644342554092,0.477623091174586,0.517731833948019
370,cane,12m,PO,0.552105188469679,0.495891213634766,0.580493988179991,0.570033722453257,0.620769306948372,0.515673301160211,0.551868800649361,0.542940024346645,0.634233851790175,0.542940636706936,0.4443655837648,0.604843007551433,0.438968488629962,0.508532727971197,0.461990150808316,0.527994874804225,0.563491735493314,0.477432251037551,0.513082599215366
380,cane,12m,PO,0.551397966104769,0.49434818517952,0.573438909921928,0.562960986091892,0.620199087179883,0.503378799773039,0.542171309922532,0.541792896955678,0.63184090454073,0.546115584215395,0.449694757357641,0.607372608688476,0.434789976732397,0.506535984681266,0.467288619329077,0.52553691132592,0.566476998305876,0.478059446165043,0.508568887041708
390,cane,12m,PO,0.550080775805743,0.493930973636296,0.56848694896869,0.556110128942065,0.618766401233439,0.491243229620175,0.534110459371766,0.542017004913654,0.626978523223046,0.549861395658523,0.454388046879802,0.609312952707958,0.432149000469503,0.504716640014045,0.472766021334065,0.522615596183422,0.570689105028692,0.479760829606575,0.50421347002154
400,cane,12m,PO,0.548374540477418,0.494235213414991,0.565910599689323,0.54972172451166,0.616852886132995,0.480309652736761,0.529037182122052,0.543803177363747,0.620282663465705,0.553614048898487,0.458499481490218,0.610580443367929,0.430803639526129,0.503230132788836,0.478653118277129,0.5190773905282,0.575998328644871,0.482539048336437,0.49992621618916
410,cane,12m,PO,0.546153035872938,0.494879878978475,0.566145952503329,0.543976529304288,0.614629780052595,0.470834470021507,0.527499442145171,0.547575176366335,0.613066760136471,0.557885613511837,0.462444693457577,0.610831798951857,0.430661071745469,0.501933096691015,0.485019422341475,0.514430330324248,0.581068508479109,0.486624960902675,0.496362879921
420,cane,12m,PO,0.543454677746796,0.495647842612625,0.568810017861441,0.539121126069629,0.612443035038094,0.46258848307533,0.528925214360767,0.552137324323998,0.605359673341611,0.562378296009495,0.46655773279252,0.610104007422766,0.4310184486165,0.501310725194837,0.49196396468243,0.508404547706252,0.585534633207307,0.491159318171279,0.493163456246668
430,cane,12m,PO,0.540338176607354,0.496920289465882,0.57466023118465,0.535889269097234,0.610527910439304,0.45520650612992,0.531884572341188,0.556685712650445,0.596684397024145,0.567001197460912,0.471154495379754,0.608691672207034,0.432176142698564,0.501614526732611,0.499822151528146,0.501762283985655,0.589812621449098,0.495198167152914,0.49031617602327
440,cane,12m,PO,0.537263762565237,0.498170478366488,0.582714502649457,0.533804215903515,0.609252680110631,0.449225445375685,0.535276209738177,0.560707727110476,0.587428463108887,0.571659291526521,0.475418620117457,0.606421935287205,0.433561334374865,0.502599858199683,0.508445211223989,0.494878399769736,0.594042333445404,0.49847360670092,0.487750116280859
450,cane,12m,PO,0.534432087119036,0.498820322282456,0.591512908827534,0.53171600207028,0.608234213078095,0.445802533666951,0.539157600528567,0.564413719817365,0.578171797052115,0.57645628584452,0.479841539801845,0.603294595362321,0.435219860847553,0.504281905633746,0.517184431639425,0.489116608789184,0.59847505185528,0.50073717746936,0.485839628219581
460,cane,12m,PO,0.531761892643163,0.498874150317655,0.600603342369898,0.530063265998044,0.60780462142602,0.444369247043629,0.543234269450175,0.568331587779068,0.56948936255889,0.581424898330091,0.483638043907734,0.599690940507946,0.437140335557749,0.506313397023517,0.526112609609369,0.485372593260633,0.602749534119913,0.502299892986885,0.485491247689899
470,cane,12m,PO,0.529342936382115,0.498270597714959,0.607958947984252,0.529357994627503,0.607788601447512,0.444472394450777,0.547464920702873,0.572091620895017,0.561671410325488,0.585901412244367,0.486608438052736,0.59571996307516,0.439442790122968,0.508452811936021,0.534592244935876,0.483377289985224,0.606555640659343,0.503073235378782,0.486639320135868
480,cane,12m,PO,0.527082796272174,0.497023504069372,0.613898889460863,0.528932461185362,0.607865877170597,0.445596289770831,0.551202027300695,0.575486138656173,0.555372833801504,0.589554194220429,0.488303425618936,0.591563802035039,0.441867142425616,0.510779868342647,0.542425366150281,0.483270251251478,0.609537848277746,0.503062829116206,0.488771997432675
490,cane,12m,PO,0.525159432912632,0.495453817954818,0.619212544664692,0.528336527341798,0.607499849503384,0.446779799749613,0.553401423173762,0.577635835010516,0.551418401102639,0.592521145995709,0.489099173923239,0.58682715579398,0.444371039581104,0.512902284320509,0.549364187309569,0.485779420288987,0.611204082775918,0.501857434725868,0.491804859085347
500,cane,12m,PO,0.524254296104763,0.494288626960368,0.624342307788275,0.526686870727506,0.606352656485652,0.448267832766651,0.554411792458316,0.578314962043648,0.549462436376531,0.59480026855022,0.488747300537527,0.581422084567864,0.447697253112235,0.514446779906759,0.555296058300282,0.491407220495378,0.610584830954426,0.499966573227704,0.496568260684877
510,cane,12m,PO,0.52435152508916,0.493082376764222,0.628792741365459,0.523885069339152,0.604557597167322,0.450265387928985,0.554619870712432,0.57784454035804,0.547988433616848,0.596949999529972,0.487387207448712,0.575072597140443,0.451401126247056,0.515006753939707,0.560474720714537,0.498970891531718,0.608263741664248,0.49687215777454,0.502798021620015
520,cane,12m,PO,0.525568869716012,0.491640291578799,0.63306814640101,0.520971065716525,0.602179487701582,0.452857129565583,0.554388078170813,0.576345918807911,0.546164905141748,0.599243166297555,0.485641588384679,0.56823843129047,0.455493374473253,0.514751184847666,0.564794224181379,0.506899949999284,0.605331354429547,0.492617083585654,0.509783949043679
530,cane,12m,PO,0.527896966479314,0.490547296407316,0.637140076337792,0.51820330847967,0.598603398591551,0.456207214913123,0.552461496520606,0.573564783387814,0.543789972901901,0.601963347786229,0.48268581903954,0.561569488319759,0.459731636504654,0.514149781371556,0.567747707686451,0.514493672839061,0.602092799195591,0.488618548828614,0.516597580287626
540,cane,12m,PO,0.530567853010546,0.490214958198758,0.64103360978986,0.515705722032339,0.594375777135389,0.460551984461708,0.548501524021097,0.569918355270419,0.540365718686802,0.604928682087125,0.479132183251751,0.555325254581066,0.46410190924439,0.513538571666903,0.569784047010179,0.522018281474007,0.597974666120266,0.485449089007866,0.522871439500788
550,cane,12m,PO,0.532775025259371,0.490237351153643,0.643884569020018,0.513287358317223,0.589216417000438,0.465754761384899,0.542433489425302,0.566087321271872,0.536809560531806,0.607436318670698,0.475909561965075,0.549863434700999,0.468458061567616,0.513265580176061,0.571135027476895,0.528897312094098,0.593446486597034,0.48372929586694,0.528629016502058
560,cane,12m,PO,0.534527179334407,0.490681880117464,0.645677655514358,0.511041015381289,0.583196374451911,0.471185257942729,0.533821440005297,0.562229376080069,0.532280176860948,0.609159932746033,0.473193996864585,0.545077833683472,0.47284896236567,0.512981390355874,0.572358063571507,0.534712081668844,0.588732233623345,0.48366696539705,0.534103657748551
570,cane,12m,PO,0.536048550918062,0.491175676527218,0.646509308152968,0.508624393578435,0.576618965131239,0.476935099047148,0.522640663654003,0.55896328911589,0.528574356533604,0.609908596221089,0.47124049386638,0.540997136104306,0.477433424782185,0.51234223083356,0.573864614313652,0.539434156082001,0.583571409903834,0.484963762024508,0.538355549512975
580,cane,12m,PO,0.537517459409323,0.491513461511131,0.647074118964185,0.505985221907942,0.569645534977373,0.482410793280215,0.509424718364757,0.55656760738627,0.526458697012054,0.609451201686494,0.469316026606095,0.537423880671048,0.481508216808469,0.511667839761246,0.57530951215357,0.542788989332031,0.578139216617433,0.487133273069164,0.541294689851962
590,cane,12m,PO,0.538657728930078,0.491282435303098,0.648072468460166,0.502899149075679,0.562421967130756,0.486776816811594,0.495603646888998,0.55486889930825,0.52495705129066,0.607417526488877,0.467540614119006,0.533727825899447,0.484475698306573,0.510977096085285,0.57634874429855,0.54498218427475,0.572093779753761,0.489646366252991,0.542953685444074
600,cane,12m,PO,0.539763844417702,0.490894688886016,0.650444556147662,0.49945451752818,0.555331377099029,0.490583009390405,0.483439615674642,0.553417224536595,0.523054251806377,0.604559982734908,0.465513220310923,0.529777990355019,0.485360031523922,0.510410512459084,0.57688668683401,0.546971782591211,0.565378900876157,0.491558241254007,0.544219542592525
610,cane,12m,PO,0.540589458597665,0.490564173381841,0.653248798383049,0.496284955704906,0.548918151641661,0.492914922416681,0.474093454264755,0.551870490263679,0.521164095440028,0.601654218287478,0.463262090942624,0.525753357257852,0.48429196631845,0.51012377002981,0.577545978833899,0.54879969851125,0.558158555015069,0.492491028445695,0.545587211692096
620,cane,12m,PO,0.540845481322393,0.490200029145611,0.655568551021797,0.493747598012985,0.543187179593591,0.493528841142451,0.467168122871069,0.549819214221597,0.519345463846443,0.59882314156036,0.461449593067956,0.521537831291447,0.482754198727994,0.510118860572907,0.578761452672783,0.550676515003022,0.550462409916151,0.49274006144388,0.547095267286131
630,cane,12m,PO,0.5403591394046,0.489772407960921,0.65666143853658,0.491505924859876,0.538275050429502,0.493572918454779,0.46213378315788,0.54777920502848,0.517645997334481,0.596445916435283,0.459983331576134,0.517698481443294,0.481450831074027,0.511046415840251,0.580438599823003,0.552273058381322,0.541868453552657,0.492768741328345,0.548533749514607
640,cane,12m,PO,0.538895403551066,0.489381604292641,0.656783819613625,0.490777977416643,0.534327830389049,0.493358102225419,0.458284710863221,0.545400519191024,0.516619559356586,0.594743275233236,0.459002850760179,0.514307360782197,0.480434371596128,0.512807436929948,0.582965357292484,0.55311246614455,0.532529370684581,0.492169034799042,0.550352317889444
650,cane,12m,PO,0.536570796866099,0.488660942475663,0.655453897382805,0.492425896879467,0.531446191521119,0.492717446876053,0.455956084200875,0.542622225116139,0.516421625504841,0.592823351285123,0.458427552216685,0.511018232500976,0.479711179967219,0.514808710710359,0.585952369510613,0.552332006627063,0.523029247341105,0.49099701858646,0.552551180843062
660,cane,12m,PO,0.534224945214662,0.488853171704215,0.652125889883465,0.495773085421624,0.53001437085706,0.491652921326757,0.455100136189846,0.539491070422456,0.517073275766761,0.589976190796667,0.456652390817362,0.507819712172046,0.478729935529941,0.516498689115455,0.588793196695822,0.550420973114087,0.514913775848097,0.489560211659431,0.554561806036375
670,cane,12m,PO,0.532388325304605,0.489867867687943,0.646717023944552,0.499720849169412,0.529703547475452,0.490795444181775,0.455031785555863,0.536364193110677,0.518988043954223,0.586549570897027,0.453429519994355,0.504596247218878,0.477644253228201,0.517749767969682,0.59075696793253,0.548587084445117,0.507990696551908,0.488249007071789,0.556709987407264
680,cane,12m,PO,0.531384245834104,0.491569937599488,0.63940989881344,0.50348173596225,0.530048771116516,0.489955806236974,0.45460157294474,0.532846710277474,0.521314628178357,0.582752343582472,0.449682990160772,0.501619318577713,0.475786909834997,0.519018240794869,0.591841525504641,0.546883808327208,0.501969405851973,0.486869548766663,0.557981193673543
690,cane,12m,PO,0.5312842000662,0.493665523560302,0.631385387641478,0.505923485169762,0.531066784254958,0.488951187215288,0.455232113770256,0.528403151763139,0.523770870083595,0.578377588926785,0.446199301236214,0.499048600508705,0.473285771458829,0.520459257409579,0.59250975800241,0.545998191600536,0.497196666319052,0.485177768382157,0.557688071500995
700,cane,12m,PO,0.531921190644226,0.495788862484584,0.622772721474755,0.505634971280504,0.532640464924728,0.48777026787919,0.457878106858349,0.52307851318983,0.526084514124962,0.573358621775431,0.443260515762881,0.496955786502659,0.471197511433822,0.522082899294631,0.592484510503075,0.546457228407992,0.494069217347969,0.483594211470112,0.555098186055285
710,cane,12m,PO,0.533122912740749,0.497553513773595,0.613205058823106,0.502799993101028,0.534593780364342,0.4861470999202,0.461181250565281,0.517889107271697,0.527747831198229,0.568056907418308,0.441221302817076,0.49519215662302,0.47007512895973,0.523566871376587,0.592312756478164,0.548061982027238,0.492440063912422,0.481948334578928,0.550940351634127
720,cane,12m,PO,0.534889968041233,0.498814294349843,0.602092630220113,0.498511332057618,0.536349428092063,0.483945461654999,0.465048129542591,0.513527867033803,0.528547551258394,0.562017116984671,0.440102215776938,0.493843913243712,0.469812669390515,0.52464695420309,0.591871625185036,0.54951411126866,0.490511512676299,0.480224540672801,0.546193380694373
730,cane,12m,PO,0.536879183183558,0.499329670437002,0.589867556009925,0.492232358703124,0.537467043784029,0.481616125608904,0.469263814410913,0.509879351268937,0.528971689250343,0.555258589534331,0.439801320516086,0.493423960470143,0.470625688386169,0.525911678945731,0.592028944238528,0.550294884637429,0.488351552859522,0.478151112864678,0.541642735018073
740,cane,12m,PO,0.539221889317627,0.498404012445111,0.576579892245277,0.484193120321513,0.538626940448159,0.479274512709804,0.472416822439971,0.506991235296757,0.529124692239248,0.548246356042553,0.439481541115931,0.494352176029627,0.472356765964519,0.527383985857048,0.592662909898976,0.549624004961764,0.485999764740333,0.475322288673954,0.538037351401035
750,cane,12m,PO,0.541430155069653,0.496528075623313,0.562962810382605,0.475429526602651,0.53977523259836,0.476674886876262,0.473658361137999,0.504304601167735,0.528115306517165,0.541169683162034,0.438800994251438,0.496546006764828,0.475181528707544,0.528942930842538,0.593095937547583,0.547635725456195,0.483804859800397,0.472399445578221,0.534849370799268
760,cane,12m,PO,0.543035460247326,0.494001457495614,0.550279902445517,0.466846956976066,0.54064302596049,0.474331312743058,0.472403894332702,0.502141950209517,0.526921457379178,0.534199106426873,0.438630002080158,0.499560929861171,0.478706435897218,0.530167203222381,0.594032216734739,0.54459683827855,0.482189924392329,0.470003837239392,0.532003022280495
770,cane,12m,PO,0.544165203214607,0.49132001003775,0.53731707589601,0.458560043141419,0.541096343338097,0.473029973697581,0.467339453154816,0.500953284324901,0.525839364878783,0.527392024016606,0.439716109973583,0.502764342971638,0.48237970430608,0.531633239709034,0.595436556998253,0.540957592622679,0.48126788611092,0.468441669115789,0.529480255458645
780,cane,12m,PO,0.545236684849426,0.488823370037046,0.524479111524941,0.450744076298811,0.540107207322923,0.473035646742702,0.459390451167577,0.50116944319378,0.524529691819176,0.520408024685854,0.442345472281067,0.505654446172843,0.48628543480123,0.533700037431576,0.596377310077013,0.537788762688938,0.480802745382846,0.467397050660819,0.527000130058855
790,cane,12m,PO,0.546296620641217,0.487091110807744,0.512320956362561,0.444164224307807,0.538134092573146,0.474010392464051,0.449367013244251,0.503061411752024,0.52271621881404,0.512584925013614,0.446670272805736,0.507864067002193,0.490545091052663,0.536369587345769,0.596323355414053,0.535568660869388,0.481613527078594,0.466900425580212,0.523945151949173
800,cane,12m,PO,0.54724927112504,0.486190673087842,0.501229081292699,0.439853781300802,0.53524806583101,0.475450567848461,0.439590608102908,0.50651627719029,0.520504727746435,0.50355200201295,0.45202983873386,0.509451718133146,0.495110677755544,0.539485856996344,0.59529834638224,0.534758292402517,0.483971636623239,0.467059521376397,0.520285532690019
810,cane,12m,PO,0.547897771624739,0.486007479389137,0.492055008724304,0.437625282687812,0.531421081860849,0.477415116068489,0.432453621317806,0.511681846305856,0.518097566064262,0.494327240044107,0.458129306796137,0.510505464659397,0.500563877936638,0.542552549198811,0.593853578371513,0.535556283370409,0.487338004204174,0.467603879966179,0.515709075839092
820,cane,12m,PO,0.548306072538204,0.486200015427216,0.484661836711152,0.437035128848342,0.526391040660518,0.478984203256491,0.428915955227187,0.51805719322197,0.516531720330119,0.485748923111927,0.464403768341092,0.511093274766013,0.506111937429207,0.545297581225963,0.591669951245899,0.538212599360642,0.491819424180563,0.468662387253043,0.510630222851488
830,cane,12m,PO,0.548100211298823,0.486552935360211,0.479532750881678,0.437778765084396,0.52073433687516,0.479760831729735,0.428017400647254,0.525277450614698,0.516053683775161,0.477483984531969,0.469795104071058,0.511602051832628,0.51160396608003,0.547821653242249,0.58920748574054,0.542816460176806,0.496959721462888,0.470503161490243,0.50499542595909
840,cane,12m,PO,0.546734311479251,0.487474644396737,0.476288324531078,0.439619357385934,0.51510030126894,0.480025618367254,0.428834632347643,0.533608285197378,0.516948961840651,0.469698714159141,0.473294163792177,0.512153545688905,0.517145216719778,0.550097572731055,0.586227995420598,0.548242298674637,0.502993891826491,0.47322703046149,0.499572983124509
850,cane,12m,PO,0.543880762241811,0.488872988718131,0.475501949464834,0.442641641614,0.509413461565999,0.481067414173365,0.432076278625179,0.54261545349399,0.518580803102175,0.462780050010247,0.474645749344248,0.512642809938279,0.522424965304309,0.552206259063989,0.582956406670535,0.555436261368483,0.509841827510926,0.47643335681593,0.494921093287503
860,cane,12m,PO,0.53961511517693,0.490377964312725,0.47748472211178,0.447406877580065,0.503881500525327,0.482844982305484,0.437908420399263,0.55170946365397,0.521271887396776,0.456675067973679,0.474082959827704,0.513013032455582,0.527470151478992,0.554247201760686,0.579639579686276,0.563680919119414,0.517451062755632,0.480122811234774,0.492081041263739
870,cane,12m,PO,0.534464128773846,0.49253875761744,0.481913739266757,0.453534139004781,0.498346398278439,0.485541792608301,0.446277548269706,0.560551325612398,0.525594490120151,0.451443558678421,0.471696573251314,0.51357097028613,0.531775484672001,0.5562765602967,0.576271656937203,0.572828925003001,0.5253233762855,0.484428171948091,0.490499464718449
880,cane,12m,PO,0.529023821846039,0.494397886274959,0.488074242623653,0.460340670494636,0.492785008382623,0.488723404248129,0.456171783855014,0.568636908052648,0.531258997561828,0.446637635301892,0.468212407103991,0.514457257511025,0.535484408318264,0.558657485975353,0.572922798133095,0.582082875456864,0.534243095686497,0.488541284050465,0.490359036105873
890,cane,12m,PO,0.523166182248769,0.495987451286251,0.494999871247909,0.467113436170606,0.487400880557883,0.492854542506342,0.466720081683493,0.575647633223145,0.537919325636906,0.442123945820533,0.464630707082976,0.515503112279226,0.538549838914368,0.561612668284585,0.570239016489831,0.590784521659878,0.543780694415955,0.491755849642784,0.490788341317998
900,cane,12m,PO,0.517105104717658,0.497204464739716,0.503252987240181,0.474627883795469,0.482539698705401,0.497615540061153,0.477983130540111,0.580753982796942,0.544932119715688,0.43731504992398,0.46071085098386,0.516707279549646,0.540445560618218,0.56534982383534,0.568689390149559,0.598722385058308,0.553297903377278,0.494787411561318,0.492138885064071
910,cane,12m,PO,0.511187457248085,0.497411960286766,0.512323957673409,0.482902793239118,0.478592159070027,0.503095859378162,0.488628986468912,0.5837879590594,0.551884444767463,0.432594478119314,0.45614332408546,0.51791382451929,0.541162995825502,0.569505565870583,0.567185155831013,0.60490215677356,0.56239172234129,0.497459222890174,0.494537777975348
920,cane,12m,PO,0.505899700013197,0.496261232933768,0.520632552912933,0.492181761924505,0.475412616353176,0.509089285655912,0.498069403793388,0.585468053343012,0.557983873463936,0.428807340990533,0.451410654043543,0.518916885767893,0.541194156213166,0.573623270145648,0.565246014297446,0.608109839806203,0.571134517768846,0.499881035877711,0.497157565660174
930,cane,12m,PO,0.501567505247226,0.493851287069485,0.52833875270969,0.501813370118913,0.47286297082641,0.515764175725123,0.505915106796099,0.585818980031035,0.562892944336039,0.425843055914002,0.447134313358302,0.519589772998752,0.54067801510589,0.576703708310292,0.562810515974128,0.609105296107705,0.580173527067432,0.502453470119022,0.500321835689088
940,cane,12m,PO,0.497984624821548,0.490755359861223,0.535537261243152,0.511659823532973,0.471034349631849,0.522556790963282,0.512558626583168,0.58501372040889,0.566279191048472,0.424622646838676,0.443336860991451,0.519942927613912,0.539534320039072,0.578317814901476,0.559723582762137,0.607824570688023,0.589133009112564,0.506110618305456,0.503853378370248
950,cane,12m,PO,0.495362058687144,0.487590639839358,0.541933860418176,0.521548736457982,0.468908457927366,0.52775037387245,0.517813859480678,0.582888890688978,0.568186219777574,0.424901380167571,0.439282431277851,0.519930804559358,0.537255549999777,0.578886372423964,0.556127812036016,0.605853162739458,0.59787492189179,0.510311120712493,0.50765717090192
960,cane,12m,PO,0.49387296576882,0.484709383618796,0.547323109264171,0.531301220022636,0.466882117806824,0.532237628375431,0.522417642795731,0.579524458217524,0.568676285424668,0.426785651631668,0.435782537870965,0.519637784369894,0.534153774089012,0.578536240969664,0.552300200450439,0.603672307470075,0.605385391938896,0.514472404307006,0.511463520776992
970,cane,12m,PO,0.493164303360616,0.482339429316258,0.552092391943367,0.540552115986256,0.464821045698683,0.536357735121735,0.526529908840052,0.574970154417808,0.568465427867485,0.429909956340651,0.433853536121798,0.519314629770646,0.531074826716047,0.5776699564007,0.548972775494457,0.602054049614017,0.611274305358587,0.518789268607003,0.515320352037653
980,cane,12m,PO,0.492962895829707,0.481009230570539,0.55570441896748,0.548830777336822,0.463051556237341,0.53973979619883,0.52963963943163,0.569529972350363,0.567511164756062,0.433689496057912,0.432257027360639,0.519337726027627,0.528288670533997,0.576756996231235,0.546325418897166,0.600847032695126,0.615162891419151,0.522905405417375,0.518306425573686
990,cane,12m,PO,0.492697756914379,0.480656454453832,0.558342179215049,0.555617217086611,0.461254597975492,0.54156329633925,0.531169038547334,0.564075692206604,0.567408128881625,0.438467819294835,0.430015112314305,0.519235009925055,0.525382321154482,0.575953813282364,0.544792613283731,0.599499612934055,0.617356558534595,0.527207867623176,0.520869865219899
-1000,grasp,12m,PO,0.59896603291035,0.525477838060833,0.627252584235327,0.491805404869957,0.540212450891508,0.476381824469575,0.412861976280717,0.524508568731268,0.511662257769735,0.590417615810742,0.45237345309326,0.552653427378031,0.564095608381155,0.522038023759568,0.528487276377256,0.501710342700607,0.582835321902407,0.541711278559088,0.516000372868476
-990,grasp,12m,PO,0.603418669711227,0.531744539223265,0.628598191436546,0.488516176322212,0.538271046833373,0.472164961688755,0.405306543203242,0.52382533117681,0.51176034082002,0.590629797212893,0.453658527872772,0.553222373813145,0.565778432909422,0.524782523788528,0.526263602701358,0.508895662914058,0.575370151342405,0.542557916441006,0.513099622007833
-980,grasp,12m,PO,0.608145386344049,0.537251544036079,0.628342360241387,0.484309402826836,0.536805952409896,0.468813334349943,0.398470214116677,0.523627990137278,0.512664863672042,0.589633891500636,0.455044274676158,0.553590017626425,0.567252518432684,0.527312687004282,0.523711178132229,0.515048888802525,0.567132949054131,0.542223035075296,0.511229287679473
-970,grasp,12m,PO,0.61267253412845,0.541610353587235,0.627110356670421,0.47930427639573,0.536492764069918,0.466595248430303,0.392322811001225,0.523887447416019,0.51353300494536,0.587352153328014,0.45675727698546,0.554485564374109,0.567993943356287,0.529367939595641,0.520560285801926,0.519851959087106,0.558958302355169,0.541137172225156,0.510162497449055
-960,grasp,12m,PO,0.616507643345109,0.544917568189242,0.624991008247065,0.473777022052338,0.537036130484399,0.465358090941985,0.38755661881764,0.524695112850806,0.514116640542738,0.583774312584274,0.458581540953476,0.556063395129158,0.567959467180819,0.531040225769448,0.516961877342645,0.524113831745647,0.55172338769299,0.539803195202091,0.50783969808665
-950,grasp,12m,PO,0.619591565840504,0.547106136282213,0.621935480385778,0.467782552741421,0.537465351638636,0.464640021364063,0.384030205190729,0.526465758854894,0.51444260294869,0.580030569844353,0.461827297338473,0.558078651681124,0.566667610304033,0.53215042726944,0.512841381803403,0.527914003430983,0.545392167271966,0.538420716115154,0.504594506709839
-940,grasp,12m,PO,0.62186469849747,0.548433159767678,0.617674364413838,0.461825036272888,0.537570895843086,0.464374386938373,0.381562278882923,0.529258032503623,0.5145723712781,0.576497018161617,0.466122300953839,0.560229254158257,0.564029828812223,0.533050488243641,0.508782040752711,0.531180779086523,0.539418946980462,0.537108948531267,0.500977733943952
-930,grasp,12m,PO,0.623124566315186,0.549230016499591,0.612664713273906,0.456526213721889,0.537489673527129,0.464519687552771,0.379114062431448,0.533031980507132,0.514097041716662,0.573737941212899,0.471831627866823,0.562779595346963,0.560175590695128,0.533950260344749,0.505247059940158,0.533803134188209,0.533412707517302,0.535895775378403,0.497099922988557
-920,grasp,12m,PO,0.623406893720965,0.549612374487392,0.607456758958488,0.452262699424737,0.536948586028172,0.465181644931456,0.375995087473903,0.537542146655584,0.512799394005778,0.571772300817261,0.478527909175433,0.565861991528117,0.555787762437478,0.535047877617019,0.502693391940385,0.535558688165668,0.527404941741306,0.534582335678289,0.492962341171087
-910,grasp,12m,PO,0.623162976077134,0.549641399434959,0.602411932692265,0.449117715355187,0.535645941087672,0.466158300394812,0.373642307965691,0.542077546521061,0.511566410074057,0.570756413551607,0.486037594569355,0.569051808628113,0.551529487769589,0.535989149905025,0.500919170505552,0.536665215118696,0.521295628585583,0.533128750859117,0.488873613912418
-900,grasp,12m,PO,0.622788058484084,0.549404707792919,0.598416583602349,0.448191897406968,0.533533600924315,0.466977842691472,0.371772161144963,0.546145336030993,0.511017125284434,0.570353749344868,0.49366922776286,0.572631192399468,0.547330867268645,0.536729335050848,0.499064641460889,0.537642024020901,0.51467915874912,0.531138954727888,0.485132679621163
-890,grasp,12m,PO,0.622135468844557,0.549163101959517,0.595682067835625,0.449612490532549,0.530657035463707,0.466643812052833,0.370410801148075,0.549564692197811,0.511372805239545,0.570595371181557,0.499682798928069,0.576828051752684,0.542975855485623,0.537429951491169,0.49726442846451,0.53854845321914,0.507535416585843,0.52825829877826,0.481933943829935
-880,grasp,12m,PO,0.621280605577235,0.548518058721779,0.594066197374714,0.452325388340811,0.527375608426816,0.466158563125671,0.369619539374634,0.552668553826357,0.511829733861246,0.571524368329611,0.504458994225456,0.581325148101503,0.538429202135593,0.538246932368602,0.49606699595326,0.539080995750163,0.500479349491738,0.524472462587858,0.480014360872901
-870,grasp,12m,PO,0.620917324305774,0.547579003212292,0.592311997160736,0.456081330167591,0.523882311641688,0.46542780872651,0.3699463293115,0.555036418811032,0.512142052867016,0.573782163208597,0.508249696028498,0.585595318829052,0.534416153414153,0.538321149832594,0.495571035342685,0.539620202286611,0.493722390276849,0.519556530000408,0.478913475843624
-860,grasp,12m,PO,0.620843513112928,0.546331969498674,0.590386237156719,0.460813760634948,0.52054206054116,0.464486146704007,0.370443662031405,0.555957342084152,0.511557571595834,0.57683673873654,0.511496332600961,0.589638030433497,0.53070200136614,0.537908443495112,0.495237641369961,0.540356253332942,0.487423109881834,0.514007779748518,0.478802711395899
-850,grasp,12m,PO,0.620962629263586,0.544342749915215,0.587932888827808,0.465893805972343,0.517560915114694,0.462869971141562,0.371200323738646,0.555658289365128,0.510106882992646,0.580106940176574,0.515315843538729,0.593431236121478,0.52736068387584,0.537222154077292,0.495687010421996,0.541143139305132,0.481764200483571,0.508266404534202,0.479333602066206
-840,grasp,12m,PO,0.621104042804864,0.5409681096164,0.585262695466614,0.470372943431122,0.515047279941851,0.460797906112831,0.371560201321399,0.555288809083471,0.508242420673232,0.583272481406526,0.519821007595484,0.596691070264329,0.52489643500263,0.536140183896782,0.496623127800828,0.540700477632034,0.478413246035239,0.503437825689739,0.48022619936248
-830,grasp,12m,PO,0.620789225674972,0.537197424027988,0.582542587248674,0.475051907099277,0.513025463330828,0.458738611522733,0.370787307458697,0.55489096796335,0.505997611281289,0.58637895061722,0.525007028023493,0.599262254658813,0.52299745741697,0.534723252805254,0.497811997687978,0.540295591410103,0.477281808578548,0.499623786760671,0.481246563623292
-820,grasp,12m,PO,0.619633313563627,0.533685614552077,0.579907076791577,0.480295465536253,0.511603036549373,0.457543295563831,0.370671988277512,0.554514273037979,0.503432505982218,0.589676994785628,0.53103798399142,0.601392178366203,0.521271722586226,0.53293505007685,0.498705560769353,0.539990230956474,0.478450333381913,0.497091874340651,0.482211158815289
-810,grasp,12m,PO,0.617550987282569,0.530997412684135,0.577856264872394,0.486582541292744,0.510444016131913,0.45709456999357,0.371764073969169,0.554047968618352,0.500046675470988,0.591915969313531,0.5378072556471,0.603232658067934,0.519821489915763,0.531211367807927,0.499094002258954,0.54165758826311,0.481943451059975,0.495435128412396,0.482009059828769
-800,grasp,12m,PO,0.614306120069977,0.529628749728313,0.576139925470281,0.494566957580864,0.509754488067489,0.456584174590413,0.374692762013684,0.553356740815977,0.495849654690926,0.59310533163786,0.544575413356919,0.604815373844996,0.518649316718291,0.529799461867282,0.498818094312369,0.546589297146038,0.486864803278812,0.495596714956322,0.481019043966066
-790,grasp,12m,PO,0.610248123380543,0.528988644426765,0.574686069278645,0.503811283521157,0.509861510301739,0.456390553769525,0.379961284529026,0.552741510718275,0.490907997348548,0.593725087710148,0.551403847069396,0.606165311497783,0.516927457740234,0.528799634976604,0.497300888722198,0.555098530191858,0.492868223328911,0.497579702388865,0.479723355952547
-780,grasp,12m,PO,0.606060758878983,0.528523464208003,0.573442387327469,0.513183922107194,0.511047441394682,0.45695839471975,0.38794431527943,0.551952269836807,0.485862847387784,0.593392211389501,0.558494778871654,0.607367886328958,0.514467428221178,0.528101590112727,0.494611504374186,0.565518114159517,0.499213113374026,0.501298358448699,0.478110694860473
-770,grasp,12m,PO,0.602135088118163,0.527801606170916,0.57138621068723,0.52230549519779,0.513458416971425,0.458089894213229,0.396622629446122,0.550928865883728,0.481291779899794,0.592610521209397,0.566425458602035,0.608564366624683,0.510996777115802,0.527906586318869,0.491290334738179,0.576285788796925,0.506418197003651,0.506637844745477,0.475984250270006
-760,grasp,12m,PO,0.598394193941455,0.526801289498524,0.568795907441204,0.531097683701215,0.517234521244192,0.459660653283628,0.404914276818746,0.550066725536925,0.477665293100903,0.591803332573016,0.574625083786827,0.609744854389473,0.506706136584053,0.528169696083937,0.487837300915814,0.587321936177022,0.514284254903786,0.512596312827096,0.47355157753158
-750,grasp,12m,PO,0.594515763770466,0.526508146100263,0.566828900991395,0.538637514006206,0.522432100649822,0.461927556683312,0.412170245852644,0.550010038733362,0.476082921258104,0.591120746860871,0.583201218536019,0.610746145937833,0.502394909650317,0.529085512014522,0.484365273507864,0.598439249730674,0.52226262601038,0.518483821191891,0.470967979620102
-740,grasp,12m,PO,0.590838679096298,0.52715041466328,0.565693332207625,0.54391076323222,0.529064572925825,0.464913627519846,0.417773529100335,0.550036765729979,0.476766904355115,0.590315524766422,0.59230120091521,0.611650744172718,0.498372661263747,0.530590311280976,0.481315721295702,0.609030040943976,0.530685168669803,0.523890315488084,0.469147496258144
-730,grasp,12m,PO,0.587717835271128,0.528306476220388,0.565522188138386,0.547794394912496,0.536486879328961,0.46853645337407,0.421924514174253,0.5507443903698,0.479145170245766,0.589445895058584,0.599942818669231,0.612850503464845,0.494661051741419,0.532519389466925,0.478290009614433,0.618776829995188,0.539474585136579,0.529238638307855,0.467712078703987
-720,grasp,12m,PO,0.585271743377902,0.530073344266251,0.566519819457656,0.551150734124655,0.544397690087138,0.472002017387597,0.425493368496475,0.552083595700869,0.483121675101385,0.588317392573905,0.606681271938524,0.614410007275777,0.491751605711476,0.534277710592833,0.475325842188718,0.627540825048506,0.548376839684085,0.534448232232357,0.466564933123508
-710,grasp,12m,PO,0.583431345574728,0.532455939625499,0.568547135439777,0.554455883384404,0.552368088554544,0.47466811100563,0.429743546220877,0.5548136356008,0.488387706051696,0.586569517336637,0.612848780181479,0.61615179065754,0.489975647369668,0.535792900359443,0.472441023296352,0.635609548916568,0.557412241538632,0.539389717822656,0.464846948213243
-700,grasp,12m,PO,0.582275977751193,0.534856610239375,0.570647237212117,0.557000339215951,0.56048499302618,0.477065708254434,0.435859437904524,0.55869006824595,0.494225135113888,0.585019948061915,0.618160139358181,0.617823534176034,0.488973489772067,0.537786921699108,0.469550794838618,0.642431637690248,0.566482846417627,0.543514595712879,0.462231743363573
-690,grasp,12m,PO,0.581072808997959,0.536791040850205,0.573396847090922,0.558686366874761,0.568392762266373,0.480500706608063,0.442566757505166,0.563416493025449,0.500288912400139,0.583908327499015,0.622231150387318,0.619676704226245,0.488329469646525,0.539923297067601,0.466626450758952,0.64764510198949,0.57534484485189,0.54619496731578,0.459240350892179
-680,grasp,12m,PO,0.580397642656788,0.538301193183912,0.576652220059359,0.559778154007141,0.575855804103366,0.485816671449157,0.449669245593737,0.5690562591234,0.506067468401714,0.583525109478206,0.624650594780921,0.621792024319998,0.488203660108391,0.54187105063266,0.464148681222174,0.649919155442535,0.584387095465568,0.547127796746775,0.456728242422742
-670,grasp,12m,PO,0.580089656001077,0.539824198018207,0.580288785496252,0.560799093443435,0.582587388752506,0.491771444061654,0.457159607532393,0.575775828264071,0.511645937338481,0.583921730274106,0.624838830501782,0.624625392422899,0.487844634046729,0.543484748001758,0.462085714519037,0.649906058518933,0.593142446321157,0.546131173987618,0.455214742430403
-660,grasp,12m,PO,0.579821188000669,0.541056554677827,0.584092559331636,0.561856932873853,0.588117539316284,0.49781762487839,0.464820884528533,0.583091549242399,0.516423102209597,0.586103634485664,0.623076316123123,0.627599049080447,0.486730917817834,0.544125159263255,0.46027145999573,0.649340023571253,0.601342271384994,0.542810694682075,0.455189259109025
-650,grasp,12m,PO,0.579513335978831,0.542805909783862,0.588074627276959,0.562779221310348,0.592185190667356,0.503671008140418,0.472905261599863,0.589653438119511,0.520715826799072,0.591360939696227,0.621234470148184,0.630289597462988,0.484705021134347,0.543792223760488,0.459286346915484,0.648247193555405,0.607992955067231,0.537835279900377,0.456409256314865
-640,grasp,12m,PO,0.579588314770819,0.545253996628192,0.591726996934507,0.563038875427354,0.594733670710082,0.509033974030407,0.481602685228827,0.594905801799532,0.524619826703464,0.598446406820235,0.618300041261474,0.633019191393655,0.482377532053619,0.542810283672133,0.458908600552878,0.646670173294469,0.612485263818604,0.531855095804948,0.458393484216735
-630,grasp,12m,PO,0.579403343852726,0.548362242154945,0.594138929855069,0.561525121902061,0.596069039784996,0.512967567359511,0.490224110200936,0.599137240651994,0.52836738367016,0.605965114654889,0.613444517434498,0.63549945864842,0.479850661357053,0.54132547557099,0.45887012528114,0.644621675071428,0.614930151592329,0.525483988583873,0.460840250554016
-620,grasp,12m,PO,0.578537225264979,0.552121985548599,0.595709797826431,0.558570765451986,0.596097203015609,0.51525754552634,0.497925111118123,0.602627787730206,0.531466198542272,0.613308334193615,0.606806491470401,0.637928830412384,0.476380744592753,0.539685750702127,0.459495412367102,0.642355715276689,0.615246096195168,0.518990003785599,0.463249051299445
-610,grasp,12m,PO,0.57794302306705,0.556372080357712,0.596677202253243,0.555635813551518,0.595373403533957,0.516322301264557,0.504344934686775,0.604951608629412,0.534115503840228,0.620078574976051,0.598480836063911,0.640053419840827,0.472699767805352,0.537640458767015,0.460703862750934,0.639887699928076,0.613520559433895,0.51293204164345,0.465718259623289
-600,grasp,12m,PO,0.577631739527368,0.560157954537563,0.596379483964759,0.552137832267654,0.594050568088686,0.515997079294579,0.508370635516299,0.605846393854058,0.536593462471392,0.625756565068285,0.588758297686615,0.641488860913909,0.469063219821346,0.534801522899194,0.462577295703478,0.63672151840644,0.609997562902651,0.507175417762304,0.467975998461
-590,grasp,12m,PO,0.577586023266742,0.562954903537939,0.594628338381023,0.548485739732023,0.591948040711085,0.514425874535367,0.510247266093807,0.605768392947337,0.538648030708767,0.629735808528162,0.577216368050266,0.642123007244386,0.465577602061339,0.531086801245393,0.465162699871584,0.632809417900756,0.605646806633421,0.502150049406395,0.470054048649693
-580,grasp,12m,PO,0.577918327753217,0.564929907320059,0.591892662065903,0.54454446645724,0.588787478400632,0.512195445770594,0.510164356306127,0.604780273278674,0.540904583266799,0.632216624161774,0.564156394236174,0.64243799478917,0.463514902941756,0.526431399408682,0.468474681203716,0.628517027830246,0.599586294477298,0.497822309369824,0.472496558885118
-570,grasp,12m,PO,0.578547782010943,0.56570618761432,0.58737897704159,0.540309011898906,0.584796729740615,0.509597616827133,0.507335916437624,0.603233696556073,0.543428790687953,0.63352366599193,0.550394353506642,0.642573930518665,0.462037229826373,0.52117560634202,0.472604580608769,0.623297359633222,0.592325384963812,0.494127387725153,0.475771698944635
-560,grasp,12m,PO,0.579488404045111,0.565686885778804,0.580933138444026,0.536020286847539,0.580239368527316,0.506608010793353,0.502347937687303,0.601538741091609,0.546640192231655,0.633894259181578,0.53737199414656,0.642668526021883,0.460769463688353,0.515583669548224,0.477343698742486,0.617521202587624,0.585239511519918,0.490883671184053,0.480214464278849
-550,grasp,12m,PO,0.580331883992264,0.565247971233563,0.572814461425071,0.531945137304799,0.575130353192873,0.503387560135224,0.496913989949238,0.599964870871726,0.549372227014817,0.633327385459535,0.526416102870666,0.642739178579658,0.459751651506874,0.510239029740355,0.482175547731613,0.61133055410584,0.578185524990117,0.488099780745391,0.485648134976259
-540,grasp,12m,PO,0.580838753283604,0.564290717214771,0.563738104100384,0.527244467337505,0.569426734390532,0.500579256726912,0.494348239422121,0.598291114952712,0.551088701899383,0.63204442704652,0.51777840704464,0.642957561279753,0.459109894519139,0.505128571069738,0.487109685418099,0.604307350274208,0.571393395779497,0.485698709560998,0.491673449870756
-530,grasp,12m,PO,0.580829221755136,0.562462172193936,0.553962670034216,0.522183178357117,0.563599282680748,0.498404414152339,0.495187165519201,0.596327555836434,0.5521177368108,0.630189568313841,0.511856698580379,0.64326606684216,0.459271137909961,0.500235431233961,0.49158668705403,0.597217123207565,0.565333748728037,0.483768957526229,0.497400552523748
-520,grasp,12m,PO,0.580195835107967,0.559844462293054,0.544358987272033,0.517477642587908,0.558314210360139,0.497133505069033,0.498169770457749,0.594096420729356,0.552315313262495,0.628673206573053,0.509038092588803,0.643428718104374,0.459473836460659,0.495517116389293,0.495558058592849,0.590394129085587,0.561016503464619,0.482148028083498,0.502177343896379
-510,grasp,12m,PO,0.578925094276216,0.556443063205822,0.53575347712474,0.512726232495714,0.553798346304842,0.496605403123274,0.503477703329537,0.591174009161574,0.55152543311998,0.628048343339831,0.5083646763243,0.643492358929968,0.46046484161903,0.491563172719669,0.499170748555196,0.583674128798367,0.558866440289685,0.480844387863702,0.506128526060345
-500,grasp,12m,PO,0.577228813234206,0.552174974559349,0.528143985728177,0.508429535824987,0.54993865535836,0.495874660684137,0.511020954944969,0.586951847773978,0.550061001245632,0.628164513464983,0.508700746351548,0.643194131945894,0.462142170362282,0.488215824595242,0.502491262694952,0.576679843264269,0.557585012791036,0.480031611662808,0.509369816125414
-490,grasp,12m,PO,0.574646836680474,0.547271947592236,0.521628308465329,0.504627044780647,0.54691636725527,0.494359240154195,0.520801227225595,0.58090160885803,0.548367489240701,0.629007363416273,0.509864613871326,0.642472136307061,0.46421659243485,0.485501406109535,0.505149925515748,0.569131036614148,0.556230404701102,0.479735614804755,0.511743935543741
-480,grasp,12m,PO,0.571502902583901,0.541820289240887,0.515743522036871,0.501877024684933,0.544279672743259,0.492233107567846,0.532043592610576,0.573612919641754,0.546739258216544,0.630307771703119,0.510674348055386,0.641352483102833,0.466954533766922,0.483512188825622,0.507531787967725,0.560913271158964,0.554549405854024,0.480050248178645,0.513801973967454
-470,grasp,12m,PO,0.568205639087987,0.535861999734666,0.510550225651995,0.499941262038471,0.541136877926721,0.489568648804146,0.543326865493052,0.565342957046344,0.544332318863459,0.631950196843739,0.510842882385303,0.639862553200642,0.470545024152113,0.481923070543477,0.510017451721437,0.552475280867059,0.55299632731624,0.480917252178506,0.516366024270854
-460,grasp,12m,PO,0.564738626444815,0.528969676785931,0.506176066618117,0.498544050951598,0.53709995967829,0.487231306657023,0.553947289435319,0.556630403582507,0.541361359926619,0.63346779815105,0.510912011030701,0.638012951913148,0.475357153494611,0.480269593882994,0.512940936421439,0.544870779657379,0.551190218540209,0.482352804493112,0.519671560714977
-450,grasp,12m,PO,0.561196238876918,0.521400038270306,0.502443612430481,0.497554187551357,0.532569780258858,0.485431603687159,0.563145333571495,0.548242431601621,0.538097029297477,0.634527914973283,0.510240296657278,0.635719566261266,0.481699563988635,0.478759500405921,0.5156933031995,0.537619790667838,0.548145928663003,0.484183346726043,0.522445346573934
-440,grasp,12m,PO,0.557265258646659,0.513985871905819,0.499617787282044,0.496703942060764,0.527664940295688,0.483770443637792,0.571127314042186,0.54073504139642,0.535448743648098,0.634838448004865,0.508758100909138,0.632269842549142,0.489444892933351,0.477546177527194,0.518033006056157,0.53047907053307,0.544501720988268,0.486759126349447,0.524223297628227
-430,grasp,12m,PO,0.55286008208417,0.506649440226516,0.497260188229693,0.49658140791552,0.52264710966945,0.482111376655556,0.578125425465749,0.534230963628659,0.533917153439878,0.634628686806406,0.507814298980736,0.628255546761943,0.497503493897338,0.476477795670134,0.520069627251358,0.523660348211454,0.541252564533276,0.489954972328176,0.525286797524528
-420,grasp,12m,PO,0.548423856447061,0.500022033477948,0.495345717691624,0.497065031038467,0.517699357247903,0.481580827886729,0.584025154325643,0.528841735912141,0.532114250988008,0.633638010777467,0.507311127213029,0.623968047618807,0.505899497387128,0.47562799241466,0.521435058190977,0.517395706686112,0.539167763942741,0.493481711386411,0.526329211203367
-410,grasp,12m,PO,0.544029096155829,0.494645519637663,0.493262856691411,0.4964643848246,0.513298894960864,0.48137846841661,0.588965734480955,0.524515022485752,0.529433673488383,0.632077626672915,0.505418707080158,0.619381817612531,0.514542378436431,0.475462958638927,0.521654667489016,0.512034975004023,0.538180337144473,0.49674245414234,0.527869456831666
-400,grasp,12m,PO,0.54029690935936,0.490464275217901,0.491243697795262,0.494388109542719,0.509798295274582,0.481629105420345,0.592998998071355,0.52114516700917,0.525385875482121,0.629943700409572,0.502774847041519,0.614869981585673,0.5234288548968,0.476476563888081,0.521246557825005,0.508380644463808,0.538275288654909,0.499659819919522,0.529820581682303
-390,grasp,12m,PO,0.536988089571706,0.487598179368463,0.488996263562001,0.491720739240839,0.507097755827591,0.483015222546737,0.595618077405838,0.518789977681527,0.52075290556147,0.627081628593227,0.501380841474675,0.610862558067553,0.53267161260178,0.478803122261824,0.520106219566704,0.506247948434737,0.53905937428886,0.502416372850423,0.532719192078989
-380,grasp,12m,PO,0.533180305472135,0.486378601481221,0.485214682250729,0.489102708356174,0.505358038040509,0.485407964445739,0.595680479486745,0.517339824672734,0.515304665341846,0.623452842686865,0.500846022733448,0.607538729221101,0.541831030762027,0.481518464070591,0.518254174920819,0.505522871934434,0.540203764337411,0.50466297837661,0.536487627701385
-370,grasp,12m,PO,0.528630607054907,0.48698153982435,0.479434913768532,0.485812191201232,0.504247296257846,0.488588581258934,0.593597963899872,0.516631198403842,0.509251642531022,0.619165170204549,0.500801068480932,0.604804606881539,0.551238211386534,0.4846330700037,0.515957323816664,0.50653972748227,0.541308737058988,0.505915984936395,0.540450764793352
-360,grasp,12m,PO,0.523701336038985,0.488495038356288,0.471640687380326,0.482656087446701,0.503380945985229,0.492565163759749,0.589589724722277,0.516484829109358,0.50317093320106,0.614703130139482,0.501255282877399,0.602478434431654,0.560874444494455,0.488286717528051,0.513142374561188,0.509385928656542,0.542515618436217,0.506745809542157,0.54468138422571
-350,grasp,12m,PO,0.518652131346824,0.489756607858321,0.462576532927788,0.479825689693634,0.502969378851756,0.497354797330154,0.58440061497244,0.516567819969139,0.498184297277467,0.609828828096177,0.502568159710242,0.600744262903695,0.569784211336703,0.492202695897203,0.510541802380939,0.51388227968106,0.543671770693053,0.506741934177653,0.548349074828845
-340,grasp,12m,PO,0.513481098095809,0.491807621432832,0.452403808884394,0.476722965927351,0.502771246466367,0.5023376835804,0.578100971133542,0.516500101879678,0.494395703313139,0.604180849636944,0.505034493148764,0.59943301283059,0.577729832011276,0.496386372658182,0.508477405409056,0.519656275831122,0.54453069500153,0.505031159258837,0.550807898270133
-330,grasp,12m,PO,0.508105909187545,0.494829894598597,0.442232877578913,0.474017724830406,0.50215388341376,0.507067338873729,0.571742674241687,0.516720779950416,0.491558680235338,0.598247065621713,0.50945208069778,0.59858793263776,0.584495076796271,0.501063247796226,0.50734704724485,0.526466197502111,0.544900932497397,0.501465866466467,0.552343230767242
-320,grasp,12m,PO,0.502770464585707,0.49878623794489,0.432719186733311,0.470428074044319,0.500798677213773,0.510804224143922,0.565307255793055,0.517192048162408,0.489321467513568,0.59231081887632,0.515073364801722,0.597935713736262,0.589631898283855,0.50616612682101,0.507054542132142,0.534466744735661,0.54431343694371,0.496506531982022,0.552770624069937
-310,grasp,12m,PO,0.497618507964225,0.503428051569442,0.425068264088653,0.466099278285366,0.498720609117137,0.513352109076942,0.558607576133462,0.51828463747695,0.487819733167276,0.586699910495082,0.519604354226267,0.597104857124115,0.593212474040591,0.511376690137589,0.507985084717046,0.543722517472544,0.542753547308792,0.4903772905066,0.55170960838125
-300,grasp,12m,PO,0.493336536847093,0.508688506668199,0.418825623821239,0.462221635874078,0.496459090747904,0.515345622771395,0.552095388727844,0.520322875313133,0.488287895108559,0.581240677629598,0.522559583166433,0.596220309062079,0.595787343473058,0.516348839127963,0.509999655522907,0.553719423507054,0.539324419287588,0.483969933566486,0.549588153356306
-290,grasp,12m,PO,0.490131453799166,0.514462152836752,0.414629762191414,0.459055424890081,0.494088654679833,0.516559778483532,0.54635509071778,0.52267857868891,0.490822896040403,0.575720605827044,0.524296763310766,0.595372332484896,0.597542807104801,0.52132409300965,0.51226836845945,0.563827940349185,0.53426276885028,0.477408948876335,0.546661338821928
-280,grasp,12m,PO,0.487916613463688,0.520639989535274,0.412312756832279,0.457518629211114,0.491718057218264,0.51737330678334,0.541511862252574,0.524072951542188,0.494874604168631,0.570289844921246,0.525662489685872,0.594714900806194,0.598433624756931,0.525593972146382,0.514321613268119,0.573848565006606,0.528343162725044,0.47140371092821,0.542657450312993
-270,grasp,12m,PO,0.486941995763291,0.526940518838501,0.410871934643054,0.456632509615807,0.488936622714381,0.51793821809034,0.537213483316428,0.524143167892542,0.499801236435684,0.565460517808678,0.527217869585193,0.594444096966706,0.598380857971938,0.528767931992101,0.516277428086334,0.584309534978896,0.522421974737787,0.467083954183546,0.53782349560001
-260,grasp,12m,PO,0.486514155559076,0.533510782097596,0.409553194219235,0.455858724762935,0.486536694769857,0.517492561735854,0.533602175247181,0.522894389043398,0.504636178244772,0.560873065629567,0.528635469688714,0.59413021485507,0.597055934122603,0.530546452009002,0.51788487741429,0.595208016748675,0.518428746683783,0.464202692790267,0.532210198754096
-250,grasp,12m,PO,0.486809643037605,0.540392538977084,0.408113354839392,0.455551072643774,0.484584475019673,0.516795222834692,0.530233544164548,0.520632606920094,0.509059669203458,0.556712443285428,0.530044885255837,0.593507271022193,0.594539713935117,0.530806311302868,0.519293055209741,0.60602575807524,0.51699648707105,0.462374738237908,0.525850106425463
-240,grasp,12m,PO,0.488390076085345,0.547406653052764,0.405895662886823,0.455988858792217,0.483433657406032,0.515858519564499,0.526998118838671,0.51793225313657,0.513187308564263,0.552629146202537,0.530521081438273,0.592335037356128,0.591415761842283,0.529708804275294,0.520546050369174,0.616500525563317,0.518236772894899,0.461569786516447,0.519191548991934
-230,grasp,12m,PO,0.490842136107013,0.554397110096447,0.403559110070514,0.45660026875405,0.483205274431564,0.514316252481796,0.524109210124035,0.514678864974946,0.51683308709407,0.548552520033743,0.529395214550779,0.590104723098333,0.587560314776224,0.527587221562519,0.521951976965549,0.626324412651795,0.520790214040043,0.461593039680424,0.512206012299561
-220,grasp,12m,PO,0.493321489772918,0.560860493775101,0.40204077340631,0.457757901864724,0.483523190787198,0.51184936180597,0.522530541776078,0.511425696984964,0.51966073919737,0.54452409611885,0.527215490632868,0.586748901799204,0.583379086454917,0.524735061547692,0.523055848637371,0.63511982357972,0.524165574376902,0.462102793345239,0.505412759559824
-210,grasp,12m,PO,0.495413502912658,0.566737173965667,0.401067845019481,0.460055222534464,0.484650341482801,0.509045334511792,0.521992823176304,0.508865178962581,0.521322614133242,0.540483452835712,0.524003858670549,0.582724246677987,0.579645850108916,0.521346073049,0.523663893314296,0.643707067679409,0.528550118894342,0.463382117321445,0.498520079808451
-200,grasp,12m,PO,0.497034248554079,0.571304073288171,0.400303037279582,0.462542929245136,0.486857307902711,0.506054983760693,0.522136934530056,0.507756925108501,0.522257053959585,0.535466052224091,0.519815152461733,0.578546749585125,0.576757845142126,0.517699088634988,0.5240016027806,0.651795246551109,0.534189317953798,0.464654607921062,0.49190888425713
-190,grasp,12m,PO,0.497137340120831,0.574551116495166,0.400061331098843,0.46545584927899,0.489742069862255,0.503632486867146,0.521208266077253,0.508013209111599,0.521935287170628,0.529882729940273,0.514284656229084,0.574013831968816,0.574182936704975,0.514512841583357,0.523449303084025,0.659093880811146,0.540156351415043,0.466106991406554,0.485578429471393
-180,grasp,12m,PO,0.495875455225893,0.576582758644435,0.400334914993204,0.468311690941385,0.492742990875151,0.501363789777,0.518704441489937,0.509143073317212,0.519936318690906,0.524080573100928,0.507699845699661,0.569080925999179,0.571408339378045,0.512635861847354,0.522770562839587,0.665522912132069,0.546128754240452,0.468104053729112,0.479746021699582
-170,grasp,12m,PO,0.494078332107,0.577152245031887,0.401819590163762,0.471412158955571,0.496262981650269,0.499277744364011,0.514976231706915,0.510062751432984,0.516236499977922,0.518662830861475,0.500252262877543,0.563377501768877,0.568435315670974,0.512181730734311,0.521637772814117,0.670130824946802,0.551444386632342,0.471031209915224,0.474282841969044
-160,grasp,12m,PO,0.492207988001164,0.577264348037079,0.405917947880467,0.475047339567125,0.499941024184889,0.497581616070939,0.511657739183106,0.510662325016718,0.511819100528001,0.514600457316761,0.492489941806175,0.556799722621088,0.566256628302171,0.512996695287998,0.520175994763025,0.672620937903605,0.556854722199515,0.474389508955777,0.469869953178347
-150,grasp,12m,PO,0.490283260587288,0.577343594457049,0.413302123527002,0.478567839014509,0.503290829906699,0.495721255981639,0.5087817096183,0.51064033779813,0.507516813494672,0.511158743724318,0.48472925144387,0.549504450375554,0.565132573936299,0.514427276123257,0.518437244181536,0.671868367538104,0.562273851992282,0.477691447271721,0.466419230547034
-140,grasp,12m,PO,0.488433931695574,0.577691753368882,0.423363211428912,0.483027078113295,0.505802733314817,0.493790141605473,0.507456013713772,0.510617666605111,0.503504941779782,0.507482004843742,0.477601583574999,0.541720656862516,0.564512603519478,0.516151781420283,0.516215867427889,0.669329373809158,0.567314466249463,0.480801183569966,0.463831923297477
-130,grasp,12m,PO,0.486515137802217,0.577982319669099,0.43470094166762,0.489471046056284,0.507773972258638,0.493014336809527,0.507270167588066,0.511111519429119,0.499362415470401,0.50434227239865,0.470755472348662,0.533593034543458,0.563691087817525,0.51812424320963,0.513745594135156,0.665197748941857,0.572277712326461,0.484079862439053,0.461824088450535
-120,grasp,12m,PO,0.484875448218612,0.578299991768029,0.445994674041977,0.496482284954862,0.509236588122253,0.493521282306403,0.50776262467318,0.512330496158613,0.494833582496109,0.502502711862996,0.464231741141536,0.525606589890602,0.562422915476982,0.520328713955061,0.512050853611758,0.659566345030998,0.577743566335178,0.487381549995654,0.460519902527991
-110,grasp,12m,PO,0.484055406929483,0.579134570078577,0.457047437703352,0.503158757379076,0.510209005580962,0.494769016721352,0.509231144426441,0.514818301876566,0.490443245048002,0.501978106208299,0.458805555595616,0.518096729838047,0.561275731979317,0.522903950581539,0.511555473550943,0.652387488664262,0.583529518924136,0.490560027015166,0.459865836669653
-100,grasp,12m,PO,0.484617111392741,0.580998885140613,0.468327713270482,0.509724520735546,0.511164353768839,0.496541835460525,0.511803246657185,0.517084438525576,0.486234695735406,0.50178983395207,0.454809274732838,0.51126382048431,0.560812940507515,0.525489450803776,0.511756750288134,0.643896416240137,0.588969367772171,0.493438480075596,0.458852643404106
-90,grasp,12m,PO,0.486752244937524,0.583469053548677,0.479157254800774,0.516044311171179,0.512218528578976,0.499482813715467,0.515422297022671,0.519130631740422,0.482031036728849,0.501937650068355,0.451285229735248,0.505765881151207,0.561276188662962,0.527771153019105,0.512782235301751,0.63428586889254,0.594130522660174,0.495424067746244,0.456766112079185
-80,grasp,12m,PO,0.490352425020692,0.585936422656635,0.488824623383329,0.522337849429438,0.513687910141034,0.502985026501593,0.519265142168814,0.521136631025866,0.47837387139796,0.502486491070401,0.447801786061102,0.501845902224686,0.561321684551586,0.529980029341277,0.51467715985112,0.623647067585103,0.598833294571496,0.496868386158164,0.453238844076564
-70,grasp,12m,PO,0.494885720330472,0.588614076353757,0.497028991402538,0.528878084795123,0.515509624513455,0.50673744241317,0.524536545912748,0.522968479654056,0.475199915489278,0.503233286345451,0.444102562570921,0.499521735586955,0.56031095529976,0.532814672693549,0.517461268524794,0.612535364773053,0.603048769712819,0.498007540002501,0.449598114801685
-60,grasp,12m,PO,0.500192288119074,0.591605190112781,0.503146757987412,0.534920699014624,0.517854660066016,0.510953487686485,0.531960881518201,0.524690045890341,0.471592645731088,0.503610397382159,0.439992899810617,0.498186371529593,0.557866373366058,0.536019225521112,0.52079813281871,0.601273656059096,0.607370382612671,0.498989992021229,0.446620261871279
-50,grasp,12m,PO,0.506081899293435,0.594208519630999,0.507242292281649,0.540652686543199,0.521023433656171,0.516053331092655,0.540604256176915,0.525824471496132,0.46699382667776,0.503842181999396,0.434758228662731,0.497877428633714,0.553872550082771,0.539223917937788,0.525273547888742,0.590803314606901,0.611599416594681,0.499474416629701,0.444741133440757
-40,grasp,12m,PO,0.512450680846691,0.596185634245807,0.509003075016653,0.546419916595621,0.524361785628438,0.522646584546197,0.549460944137224,0.526545587740372,0.461751180850164,0.504167973500585,0.428571780982578,0.498673035621308,0.548605401559645,0.542764547787583,0.529528231550648,0.581568370697162,0.615855845426438,0.499619011386328,0.444142439132034
-30,grasp,12m,PO,0.518878061258255,0.597629947706122,0.5078078840497,0.552549589432534,0.527711439204678,0.52989615642491,0.557262619933727,0.526079450312247,0.456447400516372,0.504453598167632,0.422029371291093,0.501167558398838,0.542138347692815,0.54650202968534,0.533503672742857,0.574622103240928,0.619636031392554,0.499453931011811,0.444607018604264
-20,grasp,12m,PO,0.524930418463388,0.598283430589208,0.505637308965681,0.55951062879441,0.530735117411199,0.537143699429873,0.563475209862625,0.523833819492482,0.451989147635699,0.504317353967638,0.415585589423381,0.505016451809465,0.534694975504227,0.549770162336065,0.537171495013801,0.570137400561924,0.622484839321176,0.499664600002443,0.445954858031956
-10,grasp,12m,PO,0.530536162790314,0.598143349556017,0.503979135117468,0.566632069957253,0.533319044500982,0.543840741747601,0.566970469227236,0.521062088481798,0.449154444317232,0.503606750314152,0.411156577174459,0.509450620851938,0.526870515594237,0.552754340507567,0.540242697669243,0.567503407141545,0.623967776239579,0.50038695817557,0.4481570731812
0,grasp,12m,PO,0.53524194631485,0.597630529378428,0.503130890444468,0.573286975605562,0.535686141629196,0.548900941671417,0.567847072561666,0.518976899997191,0.449033164549982,0.503087568462499,0.408275328268778,0.513870098023411,0.51945109373683,0.555553192805012,0.542610756103244,0.566627898862618,0.623519907686313,0.501693088848505,0.451471737253246
10,grasp,12m,PO,0.539000330846571,0.596830326826674,0.502403152218392,0.579759006425359,0.538105904697708,0.55212431621505,0.565931369603977,0.518318176989,0.451638524382727,0.503194791912381,0.404788720955146,0.517820543871258,0.513094471605507,0.558064547330616,0.544553628407253,0.567636754982143,0.62116574013059,0.503857635209643,0.456052985404227
20,grasp,12m,PO,0.541986268113796,0.595368357811408,0.501636228345054,0.585845570006165,0.54089939606533,0.554757015058295,0.562811778435196,0.519040605875009,0.456862585521037,0.504461521961108,0.40095330758694,0.521179688482159,0.508462748449934,0.560522996556578,0.546421194889946,0.570370897165905,0.617035133194354,0.506698133715512,0.46220191097681
30,grasp,12m,PO,0.544198076985176,0.593649233535897,0.500825606232674,0.592171081676503,0.543846361601481,0.556773061882418,0.559601307355667,0.521348968766037,0.464518572858045,0.507128817473833,0.397437395024683,0.52391028933364,0.505457305905745,0.563004229289879,0.547877529205543,0.574874424767306,0.611499368370787,0.510463390209714,0.468931777033585
40,grasp,12m,PO,0.546138744322588,0.592529712648834,0.501548041767009,0.599273098508646,0.546435053124319,0.557895257842065,0.556926407545602,0.524500983638391,0.474292445911648,0.510427285001188,0.39519695419347,0.526005075758088,0.503825070970433,0.564860598364614,0.54928397746741,0.580813693700595,0.60425713226903,0.515234345400683,0.474381614535993
50,grasp,12m,PO,0.547869476824052,0.591425083594739,0.503535984355211,0.607193622974931,0.548300189655868,0.558565405603975,0.55506483174186,0.528583344022051,0.485021650636464,0.51389012318199,0.393685011082541,0.527081617399275,0.502700515879515,0.566181354517109,0.550137195944986,0.587685593194891,0.595595051702306,0.520920934228711,0.478402906958326
60,grasp,12m,PO,0.54971790563209,0.5909314797829,0.50716840868674,0.614923186037849,0.54969363097806,0.558947243400995,0.55317918791847,0.534410719975733,0.496227051612526,0.517108324751577,0.393007645693058,0.527640351868707,0.500884959506454,0.566893321545985,0.549873970005947,0.595601478859639,0.586996656989607,0.527435712228013,0.481832501554383
70,grasp,12m,PO,0.551838109593318,0.590909275730213,0.511905332070574,0.622055597963407,0.550601673483364,0.559357123508139,0.550927918133732,0.541292550902359,0.508199684089909,0.51991745118962,0.393542185204835,0.527704001027085,0.498451718013574,0.567147050726854,0.548880436734733,0.603421847677396,0.578880565957955,0.534158772399188,0.484907127882978
80,grasp,12m,PO,0.553896454672306,0.59107069059488,0.517392443896932,0.628863425245401,0.550789936052718,0.559945482687934,0.54876902819027,0.548572489114666,0.521512218149103,0.522414123985275,0.39604725810793,0.527541048333516,0.496006887590518,0.566684979575271,0.547433455862808,0.609824458955609,0.571728652066514,0.540829369338608,0.487793523920928
90,grasp,12m,PO,0.555500219047142,0.591001975927627,0.524300560437237,0.635058451000256,0.550415540562804,0.560650544175955,0.546698041595321,0.555845071342131,0.53552349822337,0.52443937276093,0.400884790793439,0.52667301683302,0.49391884713076,0.565375250252086,0.545896843702186,0.614379880185455,0.565600114124868,0.54791431746365,0.490307048340985
100,grasp,12m,PO,0.556373180929051,0.590582012847451,0.532097541095904,0.639962177377953,0.549484848044779,0.561739411184209,0.54432385243831,0.563531898545431,0.549898997219462,0.526504676727046,0.407563141709766,0.525748402947135,0.492060778460961,0.563417957311566,0.544239596397039,0.61725718195142,0.559932997445512,0.554801945580827,0.492337543230379
110,grasp,12m,PO,0.557192707370151,0.590380890438606,0.539668161197746,0.643825473000918,0.548563823570975,0.563475343819633,0.541302694845566,0.571079482221602,0.563863546899482,0.528473137666522,0.416004981784599,0.525122828276555,0.490270188320427,0.560832009881749,0.542123290376293,0.619030810221372,0.554466034869156,0.56113924852891,0.494197230536278
120,grasp,12m,PO,0.557986263222939,0.590284357772243,0.546500184341982,0.64638663000421,0.548194029109776,0.565886177158793,0.538146200414975,0.578418736650163,0.576892409151856,0.529002356259932,0.42644508560274,0.524784829180959,0.488226740791649,0.557919438218329,0.539926362628175,0.619637819935735,0.54910300640185,0.566480260211316,0.495826398760526
130,grasp,12m,PO,0.558765892326582,0.589787083492082,0.551881028555828,0.64748179960156,0.548272699793499,0.56847976975224,0.534375389025422,0.5856600068175,0.58776929823013,0.528212007850438,0.439582796951294,0.525221590427079,0.485429164099495,0.555010444985726,0.537655491619307,0.618600487321785,0.54392924667142,0.571402164429472,0.497440628953441
140,grasp,12m,PO,0.559617675751031,0.58900469803157,0.556267673212031,0.64722555991042,0.549209982993336,0.5705770961908,0.529582236258425,0.592986336656825,0.597014608991269,0.527307434769944,0.455888520156844,0.52586488706591,0.48243679644959,0.552434102783184,0.535394285138311,0.616285432729869,0.538562198983517,0.576256887840544,0.498960255741677
150,grasp,12m,PO,0.560509590085499,0.588363541210593,0.559455964562909,0.646268684384298,0.550631405339371,0.571929752106391,0.524091250156362,0.59988255111571,0.604819124435919,0.526452460978524,0.473818893092137,0.52647448377631,0.478321596882138,0.5498959691846,0.533339903506947,0.613327728396921,0.532814902093267,0.580758141332515,0.500516367012332
160,grasp,12m,PO,0.562105022006982,0.587684636302887,0.562131630850936,0.644742109592043,0.552418105679108,0.572732852548861,0.517404188053784,0.605941695977326,0.611394552430516,0.525299617886116,0.492347809564742,0.52676392958382,0.47396017020238,0.547059386376835,0.531882320510402,0.610940340453824,0.527277150279753,0.584905149216028,0.501490629975961
170,grasp,12m,PO,0.563657499888673,0.586986215371333,0.56455870223636,0.642297068338071,0.554855294191026,0.573357758726998,0.510042179782712,0.610896653899006,0.617186156172863,0.524219098584803,0.510486220885189,0.526853340009336,0.469587839506553,0.542979409974094,0.531355779814898,0.608954052384623,0.522618725320033,0.588561618284413,0.501990633798319
180,grasp,12m,PO,0.564593337727983,0.586674277756695,0.566984160825798,0.638592316672683,0.557862401101919,0.574419162225197,0.50237015217272,0.614383877768044,0.622826246708901,0.522858958451228,0.527235346902186,0.52661633984384,0.466416147953489,0.538082493982814,0.531690072069628,0.60659897338585,0.51853074924943,0.59170310511993,0.502377010515749
190,grasp,12m,PO,0.564973298367643,0.586925779817228,0.569390341677046,0.63477775637235,0.561183060907754,0.57589887729332,0.494103350948165,0.615931404051,0.627489071134972,0.52162405069613,0.54244254883143,0.526198379031643,0.464167242562063,0.533077563551048,0.532566081406721,0.604098983014498,0.515072865655389,0.594260759068562,0.502476028563164
200,grasp,12m,PO,0.565027494185271,0.587643273152857,0.571765448459434,0.631160041491505,0.564802971583181,0.577925180747779,0.485807146865167,0.615737660653401,0.631409115431466,0.520731910294512,0.556161620911131,0.526089538296001,0.461632756918122,0.528441195927117,0.533569083487928,0.601548590340797,0.512013328121261,0.596498310768214,0.502743753361358
210,grasp,12m,PO,0.564795954833853,0.588481932160804,0.573545253726157,0.627863814649308,0.56849215083703,0.580095681811146,0.479064865338344,0.613639991928317,0.635249229406889,0.519773851402665,0.567347059137413,0.525957522465311,0.458710934285272,0.524669382679703,0.534319935501714,0.598794259166756,0.509252445407227,0.597913740488363,0.50339238746628
220,grasp,12m,PO,0.564279314011356,0.589484789648822,0.574751681164492,0.62490855019679,0.571263600501099,0.582448291066287,0.474335564567016,0.611052960666133,0.63917199197526,0.518369303626258,0.576053210443869,0.525665412651133,0.455155518339026,0.52130550978519,0.534711504209829,0.595553616912687,0.506172857213495,0.598126400857314,0.50428776700233
230,grasp,12m,PO,0.563459886245691,0.590633428325323,0.574991361133154,0.622400664887859,0.573315861421337,0.584927168834733,0.470715851108371,0.608341706734099,0.642496324211832,0.51623374315932,0.582339131341077,0.525014693445466,0.45099815367912,0.518184810290435,0.534656198857989,0.59230989000138,0.503415006677284,0.597659585490764,0.504910328646878
240,grasp,12m,PO,0.562765869011427,0.591832200126599,0.572988783437066,0.619693152054267,0.574530353780239,0.586131634794496,0.466741829710651,0.605177603059924,0.64345221717414,0.513604057880846,0.586877422800746,0.524497885676791,0.44615264034528,0.515299138290976,0.533767301463718,0.589223430532741,0.502234395327567,0.596787126095396,0.505247569804106
250,grasp,12m,PO,0.562468010894878,0.59270556572492,0.569254065239387,0.617220067078538,0.574788017492151,0.585998736357025,0.461360587708091,0.60131104926135,0.642622357678843,0.510865694866155,0.590218472452409,0.524217944383984,0.442060158211217,0.512947326736012,0.53259581499097,0.586337586799595,0.503326345628696,0.595773133642342,0.504695669435865
260,grasp,12m,PO,0.562614146415895,0.59283848514565,0.564500437977079,0.615547475754114,0.574192802131498,0.585378541161935,0.455400641016646,0.596896838479215,0.640916633527593,0.508186630315928,0.592344652300655,0.524299271171915,0.439995155947503,0.511793131480558,0.531590087146641,0.582620199134438,0.506554827945859,0.595160809464618,0.503126647193685
270,grasp,12m,PO,0.563436911296375,0.592078854774143,0.5594835179869,0.615225790754672,0.573574478864633,0.58404155233229,0.450076090985807,0.591687409692053,0.638312728263024,0.506031885024179,0.593202889880978,0.524466113703553,0.439227049097585,0.511552156504293,0.531571671548401,0.57633150436291,0.511525536947007,0.594740905125205,0.500087742022934
280,grasp,12m,PO,0.56457663204215,0.590234313767925,0.554822342014956,0.615961064202191,0.572979694901995,0.582359950680796,0.446386094554825,0.586398326206156,0.634731098259699,0.504379122953714,0.593571120412595,0.524660097397275,0.43891223197028,0.511480238885552,0.532793669770726,0.568076101414043,0.517944880350142,0.594314581686709,0.495848759031628
290,grasp,12m,PO,0.565499954504394,0.587308479087117,0.549766658348059,0.616263061955947,0.572315173514484,0.581152402405615,0.444223248066698,0.581520312559262,0.630408904448032,0.504059320659317,0.594975136059322,0.52487825436396,0.439076171999059,0.510723015385062,0.535062182659972,0.559584546094065,0.52537004950687,0.593960520985556,0.490878333835787
300,grasp,12m,PO,0.565985323292585,0.583354937549525,0.543867662364975,0.6162604134161,0.571154301951978,0.579952551445795,0.443606724554851,0.57715415355118,0.625863282822364,0.504339944570873,0.596757679573349,0.525415250659869,0.439484706308362,0.509189743582241,0.537604582243749,0.551498983162346,0.533268449692491,0.593257678351255,0.484727495749822
310,grasp,12m,PO,0.565863512276043,0.578856501618646,0.537235852838558,0.616248334339113,0.569602863379326,0.578697483696824,0.445122351839463,0.573131862616758,0.621151171579604,0.505032353215051,0.598212234711779,0.526341413900397,0.440197665738068,0.506660303332767,0.540591441260135,0.544153364456229,0.541275506957934,0.5918870572718,0.47878649725698
320,grasp,12m,PO,0.564835428235463,0.573807575893507,0.530027975509193,0.616378954738805,0.567739481691439,0.576987970713986,0.448359804407855,0.568817510505105,0.616513129654189,0.506037920051922,0.598261668372536,0.527771300543045,0.442506204084495,0.503127542500353,0.544220016735831,0.538063184049712,0.549048681906329,0.590150066384039,0.473346469463809
