Time,Condition,Age,Cluster,connect_overtime_LA_EEG_12_P04_CTS_MTH_chanpair_12m.mat,connect_overtime_LA_EEG_12_P05_CTS_MTH_chanpair_12m.mat,connect_overtime_LA_EEG_12_P06_CTS_MTH_chanpair_12m.mat,connect_overtime_LA_EEG_12_P07_CTS_MTH_chanpair_12m.mat,connect_overtime_LA_EEG_12_P08_CTS_MTH_chanpair_12m.mat,connect_overtime_LA_EEG_12_P10_CTS_MTH_chanpair_12m.mat,connect_overtime_LA_EEG_12_P11_CTS_MTH_chanpair_12m.mat,connect_overtime_LA_EEG_12_P16_CTS_MTH_chanpair_12m.mat,connect_overtime_LA_EEG_12_P17_CTS_MTH_chanpair_12m.mat,connect_overtime_LA_EEG_12_P19_CTS_MTH_chanpair_12m.mat,connect_overtime_LA_EEG_12_P20_CTS_MTH_chanpair_12m.mat,connect_overtime_LA_EEG_12_P21_CTS_MTH_chanpair_12m.mat,connect_overtime_LA_EEG_12_P22_CTS_MTH_chanpair_12m.mat,connect_overtime_LA_EEG_12_P23_CTS_MTH_chanpair_12m.mat,connect_overtime_LA_EEG_12_P24_CTS_MTH_chanpair_12m.mat,connect_overtime_LA_EEG_12_P25_CTS_MTH_chanpair_12m.mat,connect_overtime_LA_EEG_12_P26_CTS_MTH_chanpair_12m.mat,connect_overtime_LA_EEG_12_P27_CTS_MTH_chanpair_12m.mat,connect_overtime_LA_EEG_12_P28_CTS_MTH_chanpair_12m.mat
-1500,Grasp,12m,Central,23.6584130465636,27.6344224040823,17.5319094891498,16.499600179213,32.3570858429605,14.9465302593602,18.7019657426339,8.13802770157793,22.849273663726,13.2198283928129,11.3708430294298,14.9513307345211,15.8596670481398,35.6188769889542,24.3809889261756,19.0035411105273,12.0934906663541,15.95627846295,19.6000233136848
-1498,Grasp,12m,Central,23.5863696835926,27.6556972750387,17.4714225967651,16.4983606885578,32.2852902417403,14.9595282571242,18.668685364535,8.14807911560423,22.8133283789621,13.2064354787766,11.3558747799161,14.9498860809941,15.8485564568923,35.6030519267546,24.4219843679424,19.0268237593041,12.0857341885912,15.9954334133929,19.6052156053071
-1496,Grasp,12m,Central,23.515517671086,27.6764710724603,17.40963342617,16.5007457069677,32.2155704446358,14.9708889064652,18.6333776158687,8.15955986230744,22.7752599016293,13.1914680377487,11.3404334318563,14.9468180776843,15.8372311362488,35.587667733308,24.4596936796264,19.0518386086014,12.0783332323244,16.0337261166049,19.6086354147295
-1494,Grasp,12m,Central,23.4463422128049,27.6972645508515,17.3466961749538,16.5071678811299,32.1475735529868,14.980702238022,18.5962338337104,8.17237240365753,22.7349698382698,13.175068900755,11.324390398973,14.9421147918791,15.8259050691954,35.5725420728861,24.4940443416332,19.0778651082532,12.071364127856,16.0710667773826,19.6104834175047
-1492,Grasp,12m,Central,23.3789438790405,27.7180052187983,17.2828145612774,16.5178692547292,32.0811335000487,14.9893850512508,18.5575157509276,8.18658188820711,22.6921998239228,13.1576658142925,11.3076584225882,14.9355910238333,15.8148029005256,35.5572204505806,24.5250490652236,19.104142904292,12.0650403723061,16.1076969346262,19.6111272961819
-1490,Grasp,12m,Central,23.3136588343386,27.7382543526632,17.2182338220007,16.5324463753181,32.0167395228166,14.9968888285037,18.5175611261735,8.20219793109634,22.646869955763,13.1391582571123,11.2901828639769,14.9271806559394,15.8039200510331,35.5415566758913,24.552349026736,19.1301438089681,12.0596514872692,16.1440074366992,19.6110622716209
-1488,Grasp,12m,Central,23.2505465742057,27.7581471251189,17.1532265053903,16.5513244933828,31.9555086726258,15.0031112838495,18.4768185829356,8.21910343509932,22.599078323986,13.1193141026538,11.2719493399407,14.9168533779422,15.7931060262935,35.525553086278,24.5756727392187,19.155546069972,12.0551406281573,16.1796704394156,19.6105817087705
-1486,Grasp,12m,Central,23.1894720348799,27.7777522674366,17.088044039372,16.5751071627458,31.895945620698,15.0080740238763,18.4358569649029,8.23720361565503,22.5491514893054,13.0981301212168,11.2529848723261,14.9044913736105,15.7823190121483,35.509265764712,24.5948767848966,19.1801770329538,12.0516987972628,16.2144439794901,19.6096952775169
-1484,Grasp,12m,Central,23.1309691616354,27.7971025525384,17.0228460313719,16.6020985998076,31.8375662293102,15.0115840539771,18.3952609156349,8.25656825025823,22.4976316166512,13.0762607182786,11.2333101615563,14.8900053999088,15.7716279080696,35.4928095300644,24.6098555288619,19.2039921815155,12.0497146705984,16.2481456226869,19.6083900082315
-1482,Grasp,12m,Central,23.0752531590121,27.8162914198716,16.9577190356527,16.6322210372697,31.780140277941,15.0135081253937,18.3554018582746,8.2767852790481,22.4445696630347,13.0532024544774,11.2129794964292,14.873372497649,15.7616533734409,35.4762282348982,24.6205271855296,19.2270749099961,12.0495700760386,16.2806028803455,19.6066514089936
-1480,Grasp,12m,Central,23.0221363731362,27.835493266758,16.8928357049259,16.6659508997677,31.723623504894,15.0136855528601,18.3163404034256,8.29771748698915,22.3898379387298,13.0288742183134,11.1923046797794,14.8546195606234,15.7518179406809,35.4594210999139,24.6268216324817,19.2496531494064,12.051488363252,16.3114711795896,19.6045061095102
-1478,Grasp,12m,Central,22.9712039520968,27.8548471691243,16.8283955702345,16.7025345152217,31.6680754615984,15.0122878281716,18.2779565216527,8.31908278893345,22.3335335350097,13.0032887311618,11.1717935180128,14.8338176196928,15.7420440936103,35.4422707426768,24.6286667913906,19.2720955827121,12.0551488879058,16.3408877991271,19.6020383316029
-1476,Grasp,12m,Central,22.9221928083931,27.8747083574835,16.7643265268774,16.7436512317008,31.6136742178269,15.0093208798885,18.2401568533197,8.34074055056765,22.2759137667516,12.9764658548888,11.1514669969636,14.8110849567598,15.7324766975937,35.4246758420078,24.6260331330561,19.2948665414825,12.0603632118899,16.3685515874496,19.5993083860344
-1474,Grasp,12m,Central,22.8751007320498,27.8954514776067,16.7004249069496,16.7886724508354,31.5607370264962,15.0047210862651,18.2029597559811,8.36279151769788,22.2173920220491,12.9484711432017,11.1316461678021,14.7865776508213,15.7232906745746,35.4065528508834,24.6189323158885,19.3184322420075,12.0670884967093,16.3940611270215,19.596261579306
-1472,Grasp,12m,Central,22.8299470598494,27.9169498110966,16.6365422608851,16.8372699877054,31.5097899945548,14.9984519621791,18.166526356566,8.38542849858495,22.1585729446456,12.919575509424,11.1119318457489,14.7604578503612,15.714439738512,35.3878714055069,24.6074159740028,19.3433310409907,12.0753263554756,16.4173204148625,19.5928260232589
-1470,Grasp,12m,Central,22.7863905372515,27.938872451875,16.5737594550929,16.8892254678706,31.4614659521257,14.9903339489501,18.131176603438,8.40829653669743,22.1001873822367,12.8902210375324,11.0922033714825,14.7328510989766,15.7057957984012,35.3686385859012,24.5915364676259,19.3698724387406,12.0852258241144,16.4382690804756,19.5890416653798
-1468,Grasp,12m,Central,22.7442482688059,27.9610360458649,16.5117296435073,16.9440118040588,31.4160229837483,14.9801874362982,18.0978290489628,8.43077269520833,22.0427345180828,12.860378742773,11.072590412274,14.704107292795,15.6973208935672,35.3489428322781,24.5713484846967,19.3973371833917,12.0971547335651,16.4568715329464,19.5852300539042
-1466,Grasp,12m,Central,22.7034461617304,27.9834563015937,16.4500658825039,17.001620058897,31.3734578822792,14.9678560226823,18.0670498027506,8.45282593529484,21.9861811662516,12.829829395353,11.0531357802473,14.6743908980745,15.6890447821357,35.328938131738,24.5469009872413,19.4251271522162,12.1112864330444,16.4730827069708,19.5818574721427
-1464,Grasp,12m,Central,22.6639780058498,28.0063788932864,16.3882518829757,17.0621590843754,31.3340831702344,14.9533501580839,18.0387231009171,8.47458823580001,21.930310935129,12.7985459518181,11.0336634852402,14.6439089151762,15.6810827042641,35.3087040401247,24.5186635799661,19.4532545136543,12.1278296639906,16.4868735047809,19.5788094423951
-1462,Grasp,12m,Central,22.6259480446063,28.0301884300643,16.3261391067044,17.1254057158995,31.2985631306971,14.9370194658607,18.0130805153282,8.49655537524609,21.8749594443535,12.7666430400256,11.013872892322,14.6128795818634,15.6736262230369,35.2882151945364,24.4862400092242,19.4822223750666,12.1469820564625,16.4982499088799,19.576062845042
-1460,Grasp,12m,Central,22.5898804932741,28.0550284433324,16.2637610566616,17.1914377203173,31.2691989290738,14.9188421706649,17.9903611978898,8.51882069667739,21.8200907785494,12.7342882401598,10.9935193914101,14.5811953885601,15.6668640669687,35.267542957892,24.4496953870999,19.5124732346361,12.1678798705754,16.5071347251087,19.573915278236
-1458,Grasp,12m,Central,22.5556195471061,28.0807899246284,16.201240216892,17.2604973402426,31.244590896606,14.8988688779291,17.9709012621397,8.54071732915022,21.76586358044,12.7016810973954,10.972638862657,14.5496676561564,15.6609080290326,35.2469048382645,24.4091259347386,19.5435660303148,12.1897179846656,16.513413559678,19.5723928114794
-1456,Grasp,12m,Central,22.5226831391648,28.1072694453053,16.1387816873718,17.3325947663973,31.2241730237866,14.8769486121272,17.9549314423678,8.56216209147627,21.7127227582743,12.669233564162,10.9513816367093,14.5189265407468,15.6560898875679,35.2267155032331,24.3646695951836,19.5749925105122,12.2119627182433,16.5170345684839,19.5714020763065
-1454,Grasp,12m,Central,22.490989789631,28.1340193151712,16.0766741953372,17.4076451962547,31.2079408250611,14.8527661885476,17.9424112757829,8.58323437086547,21.6614438111819,12.6373956522325,10.9290665039472,14.4880294390994,15.6532168297873,35.2074988893539,24.316486467304,19.60647495145,12.2342536500957,16.5179111448169,19.5709246323697
-1452,Grasp,12m,Central,22.4606902946908,28.1605497453911,16.0163398134591,17.4855923384237,31.1962029651805,14.826245372207,17.9333169537798,8.60402292646191,21.6126991152743,12.6061347785136,10.9053619860418,14.4565731995659,15.6518062725029,35.1892082187854,24.2647379550588,19.6378223744905,12.2563268628404,16.5159765298291,19.5708306239547
-1450,Grasp,12m,Central,22.4319593410589,28.1865663450233,15.9579156520389,17.5662460857333,31.189445554921,14.7973971736855,17.9277656578724,8.62424782318802,21.5664254446709,12.5746508726893,10.8801049523672,14.4246370330536,15.6511573614396,35.1713103408864,24.2095783895246,19.6687788150777,12.2779789636477,16.5111834830779,19.5710024774319
-1448,Grasp,12m,Central,22.4047940504122,28.2119627411341,15.9017574222455,17.6496474406436,31.1884489931234,14.7663782577223,17.9258544253816,8.64363171402065,21.5221521735815,12.5428776039386,10.8531945607894,14.3920739125929,15.651061209809,35.1536168289123,24.1511509706307,19.6987505329793,12.2990439341244,16.5034757586566,19.5719242840349
-1446,Grasp,12m,Central,22.3789598869737,28.2367756023452,15.848454687705,17.7357988264563,31.193072226963,14.7335146021175,17.9275251735948,8.66199717707158,21.4794607317569,12.5108164967313,10.8245650862195,14.3588931078092,15.6514628681833,35.1364239516231,24.0896022152989,19.7268703430072,12.3193939809105,16.49285048207,19.5736972664542
-1444,Grasp,12m,Central,22.3546544660401,28.2611338290929,15.7984039002679,17.8245574095197,31.2025482322114,14.6990471470706,17.9325680096857,8.67922937417878,21.438036586587,12.4785199365612,10.7941768342581,14.3252179448168,15.6523791518462,35.1191132610476,24.0250942190365,19.7523496461837,12.3389400185593,16.4792004356994,19.5758811414234
-1442,Grasp,12m,Central,22.3316904257686,28.2850852065206,15.7513142960878,17.915845696227,31.2171054752095,14.6628654600566,17.9411482033682,8.69534720955143,21.3977284575571,12.446086813119,10.7620113112948,14.2911884571258,15.6537509544508,35.1017914312201,23.9578247871867,19.7745974861749,12.3576296625717,16.4624236532433,19.578520791211
-1440,Grasp,12m,Central,22.310072387127,28.3086103204869,15.7062150881567,18.0099776124,31.2383339952436,14.6247850169906,17.9562020971986,8.71032265930846,21.3585145852251,12.4136520433349,10.7280730938064,14.2569134583233,15.6554230741978,35.0845150162583,23.8881013022644,19.7931941563659,12.3754535476071,16.4426128289723,19.5819522776693
-1438,Grasp,12m,Central,22.2903637326217,28.331809532135,15.6634944166609,18.1071192100839,31.2647347845232,14.584631708362,17.9745203920974,8.72401253992198,21.320343983091,12.3813887326624,10.6923937901441,14.222459464897,15.6572657437274,35.0669596306249,23.8161390075113,19.8078526769729,12.3924514460696,16.4196411667346,19.5862048988134
-1436,Grasp,12m,Central,22.2728457440478,28.3550773918845,15.6235099252182,18.2059314603964,31.2966324893778,14.5424011737349,17.9958309591144,8.73639636422843,21.2830285130437,12.3495996957922,10.6550370711133,14.1878572465866,15.6592216546987,35.048980345051,23.7420284955354,19.818389654011,12.4087250301291,16.3932167905699,19.5903096539385
-1434,Grasp,12m,Central,22.2567975994332,28.3792940717919,15.5861367780623,18.3058469160951,31.334316135136,14.4980461332047,18.0199625771317,8.74748477793172,21.2463010235577,12.3188657761144,10.6161014353248,14.1531394438799,15.6613021085945,35.0304984350993,23.6661803667299,19.8247019185782,12.4244432763242,16.3632283618225,19.5939118813794
-1432,Grasp,12m,Central,22.2421006639355,28.4045829412887,15.5514259192214,18.4065528662895,31.3774327365404,14.4518339667566,18.0465805186938,8.75729607573405,21.209931087912,12.2897263428222,10.5757171358829,14.1184309033586,15.6635878561095,35.011470472542,23.5891342682418,19.8267619696116,12.4398274136906,16.3296421056538,19.5967802564918
-1430,Grasp,12m,Central,22.2284390756127,28.4305893105142,15.5194405127849,18.5093548900967,31.4253241011368,14.4041555903512,18.0751589817157,8.76584880512376,21.173931408161,12.2616170477217,10.5340273519067,14.0839553843428,15.6662127715297,34.9918957531662,23.5102927717342,19.8246126417764,12.4551113756546,16.2924634430692,19.5987610210627
-1428,Grasp,12m,Central,22.2158887787456,28.4569932863541,15.4904096609386,18.6134725268388,31.4776105050711,14.3546296937781,18.1052424495394,8.77316609711234,21.1383290236984,12.2344771809632,10.4911453603887,14.0498591457618,15.6692989285081,34.9718468146158,23.429672516364,19.8183984205632,12.4706164695873,16.2517303450969,19.599765631337
-1426,Grasp,12m,Central,22.2044663759374,28.4839984379691,15.4649201693218,18.7181877445043,31.5341161591944,14.3031058917542,18.1365131697491,8.77928558590918,21.1027609965274,12.2084881890609,10.4470997166015,14.0161342977108,15.6728546160244,34.9513788096798,23.3473250681626,19.8084374515552,12.4871980758353,16.2075065212518,19.5997574889743
-1424,Grasp,12m,Central,22.1942143501321,28.5112964199668,15.444002656362,18.8236137409064,31.5949004129487,14.2496317912759,18.1687644343964,8.7842666638905,21.0670697244417,12.1836503990845,10.401902039508,13.9826952077534,15.6769357079783,34.9304662814484,23.2633377686451,19.7952033407625,12.5049298475515,16.1598814767012,19.5987516527764
-1422,Grasp,12m,Central,22.1852187563012,28.5386078510853,15.4274432534048,18.929629192581,31.6598546936317,14.1943173346075,18.201870078371,8.78816490150487,21.0309973640366,12.1601927169706,10.355856153023,13.9494476694022,15.6817713529177,34.9092274367251,23.177824065204,19.7788711876744,12.5234389033005,16.1091470367503,19.5968339506667
-1420,Grasp,12m,Central,22.1771985403644,28.5660987531721,15.4147115090187,19.0355588795841,31.7286439372008,14.1377520226146,18.2357185570688,8.79101572382552,20.994256465501,12.1391617621518,10.3089487465741,13.9162658695934,15.6877248419421,34.8879982610998,23.0909574876123,19.7594747953747,12.5433317517898,16.055682458013,19.5942196999497
-1418,Grasp,12m,Central,22.1699611893678,28.5944756921983,15.4055434923192,19.1408249871851,31.8013850513706,14.0813510259524,18.2700519139276,8.79266696691272,20.9567039896733,12.1210709416988,10.2609514906629,13.8831886206507,15.6943648811807,34.8668161225483,23.0032415149885,19.7371033760323,12.5642787209906,15.9996313874982,19.5911571519663
-1416,Grasp,12m,Central,22.1631835338446,28.6233932028898,15.3998006600731,19.2451151428461,31.8792308781199,14.0240124916736,18.3044051442471,8.79285343451492,20.9183053854939,12.1043341218939,10.2118314041355,13.8503217636261,15.7014378803776,34.8459001608163,22.9145222087611,19.7117078523429,12.5849856795744,15.9409875263167,19.5875758970712
-1414,Grasp,12m,Central,22.1569417153637,28.6528862117749,15.3977526985228,19.3482642031326,31.9608709320257,13.9655976797986,18.3382786828502,8.79142659447412,20.8790990960065,12.0888229287475,10.161649802627,13.8179220650451,15.7089667329946,34.8251467609248,22.8248926471831,19.6833533985701,12.6054656630853,15.879859896991,19.5833691769833
-1412,Grasp,12m,Central,22.1518917161545,28.6832213260506,15.3995170695867,19.4501685384488,32.0459021244246,13.9060290614504,18.3712659797479,8.78833129610898,20.839208545441,12.0744529986814,10.1105660404629,13.7855817994811,15.7170721252798,34.8043501172021,22.7342263147774,19.6522988287342,12.6260084439986,15.8164330514279,19.578601724295
-1410,Grasp,12m,Central,22.1479802171884,28.7131915761063,15.4060174806092,19.5507476733148,32.1343189660755,13.8453914342534,18.4030384644028,8.78354348729479,20.7988601576287,12.0612144389653,10.0588945334137,13.7532404274833,15.7263529328331,34.7840857105568,22.6425096567333,19.6187680196247,12.6464656977473,15.75085993339,19.5733653564547
-1408,Grasp,12m,Central,22.1454930234354,28.7423318082226,15.416023809772,19.6499642421104,32.2262905435344,13.7840109113078,18.4333280198224,8.77721101720743,20.7584780406073,12.049722403084,10.0070112398067,13.7209926812277,15.7364591580609,34.7641590857798,22.5497653063056,19.5828416066417,12.6663784083007,15.6835341921182,19.567643740942
-1406,Grasp,12m,Central,22.1443053645978,28.7703174656457,15.4289973530585,19.7476690357953,32.3220473852201,13.722196729638,18.4619029737383,8.76934564541281,20.7190110307254,12.0395514862093,9.95486818618155,13.6889184355893,15.7470163403894,34.7440050473193,22.4560430260413,19.5446345963555,12.6855240111749,15.6147560185441,19.5613333765068
-1404,Grasp,12m,Central,22.1448435880661,28.7969955420879,15.4445488887493,19.8433888651214,32.4195767801358,13.6600043117847,18.4885640325544,8.75987438564981,20.6804953415971,12.0305012607362,9.90231105252679,13.6569840212086,15.757919176999,34.7237101276017,22.3614354726642,19.5046420501597,12.7037721548053,15.5447570297244,19.5543989649482
-1402,Grasp,12m,Central,22.1479846351605,28.8223575345353,15.4621596055024,19.9368432905751,32.5181582155541,13.5988239761894,18.5131366700363,8.74879163491995,20.6422736414249,12.0223585771593,9.84939932140369,13.6252889071018,15.7691662804609,34.7034532558288,22.2660613330178,19.4642634759307,12.7209821505315,15.4737742152722,19.5473970943599
-1400,Grasp,12m,Central,22.1538491439582,28.8467071330303,15.4813710314568,20.028035666611,32.6177648432792,13.5386740160854,18.5354722572478,8.73579891694096,20.6041411913241,12.0150128521691,9.79639178977689,13.5939939365561,15.7810693368415,34.6835337745004,22.1700634967799,19.4232422476647,12.7369482751628,15.4020591712863,19.5401040228526
-1398,Grasp,12m,Central,22.1622407918425,28.8701884677731,15.5018462218071,20.1171291833613,32.7184247644475,13.4787238106162,18.5554294130481,8.72090271447204,20.5660481451383,12.008435248564,9.74341126812089,13.5631234188012,15.7944932750059,34.6644331247509,22.0735953777701,19.3807483399765,12.751445405248,15.3300659957312,19.5323131474658
-1396,Grasp,12m,Central,22.172883206743,28.8926112974705,15.5233767289924,20.2044616335501,32.8198851274867,13.4190172554099,18.5728890221102,8.70418637769927,20.5282188721483,12.0026072252638,9.69038811482463,13.5331554704866,15.8099177097019,34.6461603450667,21.9768460812274,19.3365356381654,12.7643036284103,15.2581043677339,19.5241571993939
-1394,Grasp,12m,Central,22.1854965071901,28.9139340031423,15.5458575939924,20.2903061225766,32.9221427986985,13.3595674918833,18.5877368183611,8.68577722962187,20.4910877243302,11.9974619971518,9.63739095083151,13.5037685430947,15.8263152483841,34.6285861967544,21.880167516195,19.2905563276705,12.7754084906548,15.1857224317387,19.5157870690589
-1392,Grasp,12m,Central,22.1999702138956,28.9341050265014,15.5692742462349,20.3746354407185,33.0248805800417,13.3004235115983,18.5998668703214,8.66579730990127,20.4552292035627,11.9929336159532,9.5845909005973,13.4750319879304,15.8432860817182,34.6111528259166,21.7841543346897,19.2428516440462,12.7846884350923,15.1129042369092,19.5073577757011
-1390,Grasp,12m,Central,22.2154046783957,28.953110184021,15.5936599789912,20.4573415048936,33.1284752356099,13.2417334468699,18.6091895566508,8.64432188266265,20.4211634876683,11.9890001871067,9.53221903304436,13.4468654190567,15.8615188463043,34.593601824608,21.6894381885116,19.1935183989581,12.7921075830121,15.0397938879342,19.499062561031
-1388,Grasp,12m,Central,22.2316043070584,28.9710581398668,15.6190055517391,20.5382698410706,33.2329657328522,13.1839582133019,18.6156300396288,8.62139936789757,20.3893154278515,11.9857094681753,9.48046894364644,13.4191346847712,15.8803505177105,34.5757275639505,21.5964255575828,19.1426955071652,12.797657264316,14.9665453955789,19.4912532907348
-1386,Grasp,12m,Central,22.2485274723339,28.9879070356336,15.645749061776,20.6170411610434,33.3372764192783,13.12743807406,18.6191287849318,8.59706506169011,20.3609806331532,11.9835205785747,9.42939121472137,13.3918952586658,15.898825892701,34.5573439623434,21.5052259794843,19.0905657385435,12.8013460890036,14.8933256089736,19.4837293878244
-1384,Grasp,12m,Central,22.2661595166992,29.003422803675,15.6742464236072,20.6929875480589,33.4408884556445,13.0723985334272,18.6196546421276,8.57124791470232,20.3364468875252,11.9827087703075,9.37899090652653,13.3652714926979,15.9166885371997,34.5382989454708,21.415788287941,19.0373945425966,12.8032086130061,14.8203195831382,19.4763384902315
-1382,Grasp,12m,Central,22.2838172077423,29.0174140961657,15.7030256918423,20.7656034809027,33.5437060763578,13.0190455118494,18.6171954046678,8.54388110543576,20.3157717162268,11.9829106605164,9.32929976964969,13.3394340543391,15.9341685278029,34.518503703307,21.3278075833703,18.9835148720826,12.8033024676604,14.747636690048,19.4691453881328
-1380,Grasp,12m,Central,22.3013008681863,29.0299751431978,15.7317013950705,20.834603274105,33.6459662966754,12.9681182230204,18.6117648518323,8.51501121289008,20.2991960952526,11.9843203242355,9.28052640034652,13.315212761174,15.9515927556601,34.4979796167131,21.2410160239216,18.9291798681595,12.8019207142,14.6753919574168,19.4622051779802
-1378,Grasp,12m,Central,22.3185750555915,29.0412858262297,15.7600272007078,20.8998234417825,33.7478816163102,12.9191049141467,18.6033960874179,8.48476721156336,20.2872215391149,11.9869810559099,9.23264036749165,13.2924988886769,15.9685141504215,34.4768282368205,21.1552023044688,18.8744353337968,12.8001457982324,14.6037802121635,19.4555452354042
-1376,Grasp,12m,Central,22.3358700771979,29.0513466491873,15.787788768266,20.9612172103268,33.8486983167564,12.8721492927654,18.5921590455986,8.45336475782315,20.2825356038364,11.9910395443398,9.18567218537897,13.27102829157,15.9849571818155,34.4551366328684,21.0702891708364,18.819322962936,12.7969602411244,14.533086394203,19.4499375650111
-1374,Grasp,12m,Central,22.353411940909,29.0601455174209,15.8148315913738,21.0188047127986,33.9479695324095,12.8269288552471,18.578135099395,8.42116086289424,20.2866889211824,11.9965858137566,9.1397139119683,13.2509708993185,16.0011591824582,34.4330360681451,20.9864081641795,18.7639573406334,12.7922919473161,14.4636277238245,19.4460645194856
-1372,Grasp,12m,Central,22.3715172976065,29.0674464315702,15.8411552213942,21.0725970659111,34.0455431875785,12.7831985015749,18.5614430037358,8.3883218402344,20.2969570688443,12.0036514371448,9.09485078809752,13.2327015962749,16.0174550063851,34.4108485979143,20.9038568028118,18.7085256519987,12.786213798875,14.3958287732459,19.4433399851311
-1370,Grasp,12m,Central,22.3901604431509,29.072948140589,15.8665834728483,21.1225331526523,34.1411992705392,12.740729725456,18.5422243526662,8.35492673138343,20.3120337481556,12.0117479863188,9.05113358872027,13.2168566277214,16.0342483289302,34.3874464488598,20.8226708577211,18.6532598956325,12.7788271353979,14.3305680865544,19.4415974018845
-1368,Grasp,12m,Central,22.4091829490138,29.0764561549555,15.8905473378443,21.1686573601786,34.2347739514156,12.7002152870419,18.5206504040502,8.32107741105182,20.3326143093465,12.0205284080312,9.00865861239098,13.2030754534642,16.051473883335,34.3628139039339,20.7429680503028,18.5984334238457,12.7702609335312,14.2684588693665,19.4408352798685
-1366,Grasp,12m,Central,22.4286159411825,29.0778785628522,15.9125777224587,21.2111589752379,34.3262694564599,12.6630517241673,18.4969231903077,8.28680371618917,20.3570234193664,12.0298786708193,8.96774372917129,13.1905749772799,16.0687763135614,34.3366966520814,20.6649945027125,18.5443659073178,12.7606528685521,14.2096993848883,19.441270747661
-1364,Grasp,12m,Central,22.4484460387802,29.077190927084,15.9323786194446,21.2500276988098,34.4157765421812,12.6278545674039,18.4715464616527,8.25213264687967,20.3835673282097,12.0396378092865,8.92822946468988,13.1792671134738,16.0859433769361,34.308896778109,20.5890641247884,18.4914233142125,12.7501290054232,14.1543560426206,19.4435386924173
-1362,Grasp,12m,Central,22.4686100377629,29.0744868740709,15.9497434917733,21.2850172467009,34.5033663620128,12.5942080403021,18.4464616858347,8.21715621391963,20.4113621847106,12.0496174856574,8.88977033494378,13.1691427649741,16.1028195386087,34.2795922074927,20.5155349154778,18.4400121727978,12.7387349008851,14.1023544968415,19.4461384802289
-1360,Grasp,12m,Central,22.4896767700627,29.0699418027502,15.964527705679,21.31589923628,34.5891867414427,12.562342849701,18.4199676148185,8.18212281446291,20.43969386971,12.0596617558483,8.85228798840211,13.1602272189945,16.1193272920637,34.2482690146857,20.4447025948215,18.3905681602534,12.7263714795995,14.0533672104921,19.4488921360325
-1358,Grasp,12m,Central,22.5127119505935,29.0633447730553,15.9778149191685,21.3424754315273,34.6730441471529,12.5327037038549,18.3921840590761,8.14736962474905,20.4681574832231,12.0696364982696,8.81579913338102,13.1526981890423,16.1355191511902,34.2147396230108,20.3777890455407,18.3434960589007,12.7130331759979,14.0072484115342,19.451806145225
-1356,Grasp,12m,Central,22.5365987085117,29.0547172517234,15.9889905995388,21.364586425234,34.755659103968,12.5045108262544,18.3632271483433,8.11317323341008,20.4963916753565,12.0794437447453,8.78034288580707,13.1467693183855,16.1512826826323,34.1789456068174,20.3137442019896,18.2991336323475,12.6988504086254,13.9640168023247,19.454886151793
-1354,Grasp,12m,Central,22.5608881419832,29.0441512455674,15.9973937171731,21.3821115207708,34.8361533691242,12.4771816169483,18.3331929034253,8.07941925628081,20.5238891597967,12.0890605778248,8.74590156580165,13.1425338750989,16.1664491315886,34.1408692152925,20.2516844083407,18.2577102888391,12.6836376313947,13.9238595536834,19.4579729760325
-1352,Grasp,12m,Central,22.5855821983747,29.0317882691353,16.0030664173841,21.3949904590917,34.914080258494,12.4507274329988,18.3022285764567,8.04571598357709,20.550390494906,12.0985478469613,8.71242531694105,13.1397702037765,16.1809972308534,34.1005584871384,20.1914552303728,18.2193668214595,12.6671295565519,13.8872983031119,19.4610131655717
-1350,Grasp,12m,Central,22.611008255237,29.0176768385745,16.0060810507186,21.4032003836278,34.9894634310112,12.4250902104598,18.2706012842871,8.01226035901262,20.5757666213534,12.1079536619226,8.67985859061654,13.138482325914,16.1950185569918,34.0581107827285,20.1333395145673,18.1841788273032,12.649215780813,13.8547614172608,19.4641495164783
-1348,Grasp,12m,Central,22.6376955745535,29.0018001790544,16.0064953255895,21.4067640318762,35.0620764409717,12.4001007275138,18.238705539567,7.9797727421209,20.6000086084241,12.1173390555817,8.64814994740177,13.1385612267654,16.2090145560269,34.0136773715624,20.0772772126042,18.152221052829,12.6298572283425,13.8265426817321,19.4675801485319
-1346,Grasp,12m,Central,22.6650983877203,28.9841821501366,16.0043216077999,21.4057332952642,35.1317483510776,12.3756558306844,18.2068461831179,7.94798470277283,20.6233201128497,12.126898049949,8.61725387404812,13.1403102849441,16.2230601386586,33.9674245123604,20.0233335062975,18.1236659499982,12.6090396125604,13.8022068227694,19.4714514323137
-1344,Grasp,12m,Central,22.6933545156024,28.9648968248357,15.9995712277815,21.4002079428332,35.1984759349575,12.3517769627297,18.1756318183212,7.91738062226271,20.6461547876402,12.1367351657532,8.58717710488665,13.1438605387287,16.2374660832488,33.9195208743199,19.9715436226064,18.0998564819645,12.5867819969913,13.7820967470889,19.4759791380243
-1342,Grasp,12m,Central,22.7222595535917,28.9440550720171,15.992277135354,21.3903958502794,35.2623093118956,12.3286048773521,18.1457830607053,7.88819351395925,20.668656461149,12.1467925415547,8.55831371539217,13.1483407653806,16.2528908250805,33.8701244691047,19.922903598215,18.0821172722302,12.5631766307673,13.7659911341647,19.482215469227
-1340,Grasp,12m,Central,22.7516915570494,28.9217992665624,15.982463704986,21.376659096789,35.3233051798985,12.3063580513756,18.1173593479898,7.85963909936517,20.6913771590411,12.1570457410348,8.53167692980256,13.153455301272,16.2694716133456,33.8194187029595,19.8776517164206,18.0688218650553,12.5383840814279,13.753994173809,19.4908087820199
-1338,Grasp,12m,Central,22.7815330218087,28.8983181019719,15.9701882614325,21.3590707580441,35.3815846680631,12.2853886684735,18.0887001112822,7.83174051165078,20.7147462074616,12.167373468184,8.50660005938394,13.1591378305401,16.286465076113,33.7678595663165,19.8354564956672,18.0598801415772,12.5123777298213,13.7462470086928,19.500760618933
-1336,Grasp,12m,Central,22.8117328049877,28.8738540887714,15.9553692292608,21.3375081892551,35.4373411102935,12.2663760321457,18.0598859652674,7.80463533286389,20.7380111300079,12.1775761887025,8.48246893572771,13.1657221063564,16.3035700736113,33.7158520690467,19.7965924081936,18.0550055977131,12.4851432651121,13.743406140839,19.5118738852378
-1334,Grasp,12m,Central,22.8424138058392,28.8487896289826,15.9377111919427,21.3120503101522,35.4907842726534,12.2491138300221,18.0310295434641,7.77846859777039,20.7602917854891,12.1875411606588,8.45906706511212,13.17331801617,16.3209056334469,33.6627916369,19.7614621523268,18.053783951107,12.4567550186345,13.7451059869039,19.5236883750615
-1332,Grasp,12m,Central,22.8736534274961,28.8235235426092,15.9170889957567,21.2829426923625,35.542036485931,12.2333915251147,18.0022357349816,7.7529665396909,20.7810286781995,12.1972861966339,8.43630870106644,13.1814079230253,16.3385494232263,33.6083245721328,19.7302343202292,18.0558816854413,12.4273148747922,13.7511451361384,19.5356801232534
-1330,Grasp,12m,Central,22.9055735842554,28.7979936951593,15.8936085603903,21.250729010518,35.5913366296191,12.2186057125694,17.9735790535608,7.72804952326782,20.7998737384743,12.2069225638271,8.41409236651747,13.1898621078828,16.3565842495111,33.5526106648411,19.7027103245702,18.061101716928,12.3969425718034,13.7610807531636,19.5473984535103
-1328,Grasp,12m,Central,22.9381685524427,28.7722373080287,15.8673181476512,21.2163521434304,35.6394172831846,12.2044717791577,17.9451361078813,7.70372916023069,20.8166433378827,12.2166512543837,8.39229370318583,13.1986721337735,16.3754900871638,33.4958913920602,19.6791953274297,18.0693732829137,12.3658127044839,13.7743688685329,19.5585042812029
-1326,Grasp,12m,Central,22.9710487505212,28.7464252209958,15.8380999601115,21.1790934746539,35.6861012670492,12.1909132362848,17.9170425368973,7.68002427880076,20.8312964568169,12.2268636426221,8.37080478362978,13.2079024603158,16.3950960201823,33.4377715611525,19.6589817795252,18.0806907944919,12.334200832489,13.7904515130443,19.5687359879035
-1324,Grasp,12m,Central,23.003905579269,28.7208556552649,15.8058479608765,21.1386797385801,35.7308457077012,12.1780857525106,17.8896201803204,7.65701895362955,20.8439695716587,12.2372801691183,8.34958022817774,13.2176032488594,16.4151754653247,33.3783594347207,19.6421408346283,18.0950378887956,12.302284294481,13.8090833211469,19.5779218685411
-1322,Grasp,12m,Central,23.0366898047023,28.6955745473304,15.7704614101294,21.0951716737471,35.7735304767207,12.165973999649,17.8635240250116,7.63482560764361,20.8548814859551,12.2475279390955,8.32865877122046,13.2277894364536,16.4359728091265,33.3175630794215,19.6286181096366,18.112317462426,12.2700419816013,13.8299898231604,19.5860925474793
-1320,Grasp,12m,Central,23.0696241426284,28.6702964139374,15.7318719470873,21.0487148082298,35.8142282817285,12.1544309821042,17.8393793141912,7.6135069960426,20.864015999814,12.2575038317975,8.30817657272916,13.2385429799748,16.4583720925726,33.255240742262,19.6178643797775,18.1324283169116,12.2375336110921,13.8530799112845,19.5935168142057
-1318,Grasp,12m,Central,23.1026339080655,28.644882686352,15.6901241654772,20.9995283625482,35.8532175187251,12.1436281151668,17.8169897565207,7.59308636306278,20.8711019039258,12.2671919157256,8.28827919975503,13.2498444517774,16.4816345198949,33.1915712005804,19.6095500857419,18.1553896582734,12.2048659381824,13.8782347332829,19.5998437343017
-1316,Grasp,12m,Central,23.1355132066415,28.6192776385103,15.6454105303669,20.9482185144827,35.8909354176079,12.133558313043,17.7958146282308,7.57360115701561,20.8757992726902,12.2764992496484,8.26892983253595,13.261586146544,16.5051000540997,33.1268701618425,19.6037710380125,18.1814041468291,12.1721312203479,13.9052401763527,19.6051841830498
-1314,Grasp,12m,Central,23.1683765277355,28.593520770812,15.5979982184419,20.8955869487917,35.9274832262161,12.1241345990565,17.7755379268767,7.55514153172065,20.877790973773,12.2853351375626,8.24996241229422,13.273714233057,16.5284125905026,33.0615179855773,19.600364490125,18.2110182846524,12.1394296821927,13.9338214738964,19.6100041769265
-1312,Grasp,12m,Central,23.200921378449,28.5694302495684,15.5483447494441,20.8411239477936,35.9628841724222,12.1155305777836,17.7560718892239,7.53783881408645,20.8768220747529,12.2941825592866,8.23124038997816,13.2862945613279,16.551387898488,32.9959868578401,19.5992111911218,18.2446496014947,12.1068910166278,13.9637123675558,19.6139774211363
-1310,Grasp,12m,Central,23.2326885148004,28.546552100678,15.4990262468207,20.7861280143457,35.9973980011179,12.1080275691407,17.7374393414962,7.52180512775724,20.8727060863965,12.3034548840484,8.21269678066272,13.299273609481,16.5738978097314,32.9311508486498,19.6001288355188,18.2817436688175,12.074706325129,13.9947042753177,19.6166735940604
-1308,Grasp,12m,Central,23.2636744479493,28.5242071835125,15.4470202643769,20.7305081144339,36.0308254901002,12.1018811470863,17.7197064703655,7.50727818912276,20.8653194620872,12.3124166623375,8.19433235187604,13.3125521304843,16.5958248797565,32.8661784446202,19.6030364005431,18.3218359334941,12.0435041022454,14.0266519981145,19.6180923977438
-1306,Grasp,12m,Central,23.293846749117,28.5036735246245,15.3923566554485,20.6737552434922,36.0625448893568,12.097407337256,17.7029427357182,7.49390955179067,20.8545847871121,12.3209502343298,8.17621619023963,13.3262643505856,16.6170393660602,32.800895448863,19.6082121996969,18.3647077767629,12.0137118583354,14.0594394842774,19.6184063776383
-1304,Grasp,12m,Central,23.3229565096814,28.4840518445787,15.3354255004198,20.6158642709405,36.0920158126897,12.0947909863774,17.6872447317776,7.48164386914091,20.8404716591774,12.3291584673238,8.15851677185507,13.340616084137,16.6374075490739,32.7352975428499,19.6164015469406,18.4103629463883,11.9850640722618,14.0930080094508,19.617783473732
-1302,Grasp,12m,Central,23.3508581627221,28.4649665774031,15.2767117009203,20.5569220624999,36.1189363593557,12.0937591486421,17.672768308968,7.47057012500779,20.8229830722948,12.336923626326,8.14151168878533,13.3556076198962,16.6567849600512,32.6696129400853,19.6281907359434,18.458993396356,11.9583091268206,14.1275418676818,19.6162113730766
-1300,Grasp,12m,Central,23.3774841298912,28.4461348069798,15.2160905267233,20.4971719093286,36.1432469967544,12.0939207440424,17.6597050292602,7.46098195059549,20.8021648620003,12.3439558894746,8.12539524327531,13.3712974235613,16.6750619417162,32.6039252798138,19.6431748545575,18.5108674282489,11.934722007264,14.1633569915658,19.6136044113003
-1298,Grasp,12m,Central,23.4028355089289,28.4276968862388,15.1531897532603,20.4369261375563,36.1649610579401,12.095000706658,17.6481207244808,7.45356079353206,20.7780680363849,12.35011139168,8.11016569802577,13.387883771018,16.6923581627642,32.538283174773,19.6612190546015,18.5665899852091,11.9133906211735,14.1999982282049,19.6098929620574
-1296,Grasp,12m,Central,23.4269897211784,28.4105927353724,15.0879246589569,20.3764136005444,36.1840897681493,12.097001207662,17.6380582717156,7.44826515941571,20.750734413553,12.3551088324529,8.09603124910302,13.4056185260727,16.7089559918084,32.473023096918,19.6814487585503,18.6258718132726,11.8942951956029,14.2372685255141,19.6050490337789
-1294,Grasp,12m,Central,23.4499824475824,28.3933275671718,15.0204498507342,20.318401626535,36.2005863505271,12.0999919514449,17.6296735152616,7.44480016075857,20.7202058484167,12.3587115125713,8.08344992244809,13.4249190475122,16.7245701252905,32.4081930227351,19.7033238299374,18.6874620445312,11.8776256822835,14.2751625953409,19.5990639678523
-1292,Grasp,12m,Central,23.4719104805416,28.3755534409682,14.9510773740304,20.2609082932068,36.2144894873184,12.1040800563649,17.6233505358113,7.44299500288137,20.6865440777958,12.3609119325814,8.07212381005134,13.446353857183,16.7390792376454,32.3435746683656,19.7265745873847,18.7507962057914,11.8634406453766,14.3134812557557,19.5919546341879
-1290,Grasp,12m,Central,23.4946662440279,28.3572451969587,14.8800790282155,20.2037746106544,36.2258855282421,12.1094089737181,17.6202924259137,7.44364978291013,20.6498335611553,12.3615430145447,8.06170242391491,13.4694419846008,16.7521284962458,32.2791095242025,19.7513107086006,18.8156706229632,11.8517096916815,14.3520392414307,19.5838155125862
-1288,Grasp,12m,Central,23.5186650292741,28.3384814905427,14.8075867011527,20.1469714658952,36.234945684803,12.1166378809961,17.6213501449656,7.44739257338669,20.6101881949062,12.3603744828487,8.05214674758279,13.4940533998231,16.7635846933033,32.2148447012559,19.7781104323256,18.8837982117368,11.8423925919421,14.3906625890481,19.5750847921613
-1286,Grasp,12m,Central,23.5415982698149,28.319316937858,14.7337316622397,20.0904054432307,36.241892659822,12.1270689123668,17.626664183096,7.45318012133088,20.5677233439204,12.3573095511461,8.04367302315678,13.5202405517397,16.773507630893,32.1509010381173,19.8060161921905,18.9542860039043,11.8354992358506,14.429318528989,19.5663757158877
-1284,Grasp,12m,Central,23.563011859103,28.2997967290124,14.6586813125011,20.0341264775009,36.2465818766308,12.1390252800989,17.6357922588827,7.46024739503007,20.5225260078865,12.3523381704828,8.03654683041464,13.5480695225959,16.7820906889919,32.0875598581203,19.8349825773889,19.0266164205091,11.8311618815592,14.4682486162584,19.5568742473248
-1282,Grasp,12m,Central,23.5829429149875,28.2799234321184,14.5827125393875,19.9783010687612,36.2489170223267,12.1525282854304,17.648461836022,7.46876111113638,20.4746662674885,12.3456228071682,8.03049796316943,13.5773166346302,16.789501779511,32.0252294838269,19.8647260306423,19.1008637467775,11.8295674302655,14.507019786456,19.5466744318765
-1280,Grasp,12m,Central,23.6015614139492,28.2596601999649,14.506392866569,19.922999708952,36.248966904777,12.1676930195883,17.6648313793449,7.47844084423277,20.4242384981366,12.3373927564774,8.02524549695725,13.6079177606061,16.79561356444,31.9646269550008,19.8953162885499,19.176805761912,11.8306303118987,14.5458778088716,19.5361669399349
-1278,Grasp,12m,Central,23.6186920980928,28.2390503466841,14.4302598791062,19.8682249334696,36.2468480557709,12.1847085111128,17.684520554208,7.48925144412199,20.3713716894562,12.3274207551689,8.02074610358454,13.6399008515225,16.8000440988701,31.9059135965411,19.9268196582021,19.2539399283238,11.8342203032338,14.5843019453703,19.5260528312611
-1276,Grasp,12m,Central,23.6346654745562,28.219759179515,14.3544807714695,19.8142415637518,36.2427015059577,12.2037760395785,17.7068942466517,7.50115190730437,20.3162293296841,12.315595373497,8.0171257502052,13.673425429469,16.8024483710854,31.848435453581,19.9590200762904,19.3316919835868,11.8402841144515,14.6221082458511,19.5158842503299
-1274,Grasp,12m,Central,23.6496737423599,28.202027621068,14.2794778624485,19.7614482712968,36.2367054058767,12.2250801178515,17.7317563318967,7.51410958289014,20.2590031881022,12.3019714194024,8.01498719117478,13.708736000082,16.8026006511632,31.7921338737762,19.9918083674975,19.4095895396595,11.8487188667872,14.6595627399073,19.5053946791583
-1272,Grasp,12m,Central,23.6634071361476,28.1868988219712,14.2061024075376,19.7097914283766,36.2291387784114,12.2489027698373,17.7590816135999,7.52830515427546,20.1999000256801,12.2866524566953,8.0151681191056,13.7456561040236,16.8003617812555,31.7374684657976,20.0252906005866,19.4874094622159,11.85945343052,14.6968481844715,19.4947717642576
-1270,Grasp,12m,Central,23.6752170571494,28.1718550540047,14.135932853689,19.6591223970805,36.2203948685324,12.2753387484304,17.7889146111932,7.5434971588722,20.1391604184788,12.2698728363959,8.01761674910273,13.7841398850537,16.7956544198834,31.6844518099614,20.0599927657722,19.5655407109592,11.8727062795226,14.7334453942529,19.4846000017302
-1268,Grasp,12m,Central,23.6847778312404,28.1563516764334,14.0694920747314,19.6097019358526,36.2105386720142,12.3050973351275,17.8212984337692,7.55952012537524,20.0770759214322,12.2517897973723,8.02196964803804,13.8238876784951,16.7884255802654,31.6324847966669,20.0958117466909,19.6437291063098,11.8887318337431,14.7692806965927,19.4749278581589
-1266,Grasp,12m,Central,23.6918982694137,28.1402110716907,14.0075580746708,19.5615307109694,36.1994006490089,12.3379113958838,17.8562446938131,7.57660518001314,20.0140927606714,12.232150734326,8.02744915105234,13.864536061114,16.7786452825735,31.5816972126457,20.1325594365656,19.721211337499,11.9077415605576,14.8044037873895,19.4654310858761
-1264,Grasp,12m,Central,23.6964559288552,28.1233848896631,13.9491202128485,19.5141782794313,36.1870078972884,12.3733323300109,17.8937458950299,7.59457748548431,19.9506493080456,12.2109291450497,8.03345923482587,13.9059342882736,16.7663275358164,31.532485719034,20.1701544935602,19.7987016061855,11.9293750262224,14.838890595701,19.4559419266069
-1262,Grasp,12m,Central,23.6983864116245,28.1059137924038,13.8944893858603,19.4671818000806,36.1735051275167,12.4113632308139,17.9338262990332,7.61329013819568,19.8867161771514,12.1881944896535,8.03971385919712,13.9485265275139,16.7515424985397,31.4847149546099,20.2083297161063,19.8750892633369,11.9525500089454,14.8728296240182,19.4467590231899
-1260,Grasp,12m,Central,23.6977478761333,28.0879504941047,13.8440808528698,19.4200842151533,36.1591318244463,12.4530677446075,17.9766483504138,7.63272352734647,19.8223130118953,12.1640352869593,8.04604514581484,13.9919863680434,16.7344028515429,31.4381932174773,20.2467317401871,19.9493416217727,11.9770294975674,14.906303313484,19.4385616117571
-1258,Grasp,12m,Central,23.6947754344759,28.0698566668008,13.7976696793812,19.3726572777204,36.1441963175016,12.4981949362879,18.0226649512109,7.65280015769347,19.7576722373689,12.1384480465109,8.05233956028633,14.036255662847,16.7150139269354,31.3931705578363,20.2851493297783,20.0209744781014,12.0027504739474,14.9393138486609,19.431618627059
-1256,Grasp,12m,Central,23.6897138437071,28.0521493430981,13.7551161462006,19.3248589784912,36.1291686281077,12.545860053119,18.0724074864095,7.67316681817839,19.6931340511849,12.1114410239839,8.05852094900993,14.0811377267386,16.6934890174722,31.3498659260589,20.323485265223,20.0895927715559,12.0297080114522,14.9718486187977,19.4257662398751
-1254,Grasp,12m,Central,23.6825054196847,28.0348916135168,13.7162269811504,19.2766295602268,36.1143014853813,12.5958120568189,18.1254143311271,7.69342493468332,19.6289775285823,12.0834370543816,8.06453787605268,14.1263325096978,16.6696804001989,31.3075729572436,20.3616952198503,20.1548532361862,12.0579218077988,15.0040282860685,19.4205206854697
-1252,Grasp,12m,Central,23.6729715566085,28.0180556894746,13.6814079715625,19.22787207062,36.0998902099719,12.6479185916209,18.1808039475798,7.71332189533181,19.5654485162494,12.0546328291162,8.07036734858057,14.1715684062187,16.643343315549,31.2658125003008,20.3996653567936,20.2164712597135,12.0874487202627,15.0359384931816,19.4154519871828
-1250,Grasp,12m,Central,23.6610738898733,28.001503735021,13.6510952979047,19.1784249850324,36.0861758799301,12.7026651030283,18.2381565386917,7.73270208725181,19.50306039725,12.0249526774687,8.07600916644544,14.2166544403331,16.6143369228013,31.2246578587678,20.4371974021501,20.2741897159539,12.1183351462836,15.0673906368082,19.4103165113858
-1248,Grasp,12m,Central,23.646976229446,27.985219125551,13.6248915882521,19.1280956420942,36.0725893704551,12.7601196815729,18.2975578128945,7.75147292895772,19.4417513936496,11.9945561795614,8.08149901863449,14.2616233137553,16.5825669909231,31.1839531200715,20.4741459557541,20.3279103526424,12.1504791469558,15.0981793754669,19.4049851430254
-1246,Grasp,12m,Central,23.630889328178,27.9685940837944,13.6029604709073,19.0767724113446,36.0593034037102,12.8189980392186,18.3587490580867,7.76958540507012,19.381600957273,11.9635235011123,8.08697617101826,14.3064511373234,16.5479787792456,31.14397869291,20.5105060640723,20.379261615162,12.1837110037911,15.1282287946668,19.3994312739225
-1244,Grasp,12m,Central,23.6128575052693,27.9512212205011,13.5871693881306,19.024463860886,36.0464727053015,12.8790078937465,18.4211638138125,7.78700294536601,19.322952272053,11.9327312762516,8.09281241126212,14.350816211917,16.5105549355803,31.1046334939158,20.5465521656829,20.4262070648624,12.2179425499185,15.1577795169433,19.3937221820921
-1242,Grasp,12m,Central,23.5928722261454,27.9328605577791,13.5764063157778,18.9712672436341,36.0341986514111,12.9399311564533,18.4846245007521,7.80367505554041,19.265004122406,11.9016304230025,8.09906703392438,14.3945721195106,16.4703175589087,31.0660867734666,20.5825643269102,20.4683601839795,12.2531463482945,15.1873543200158,19.3879668257266
-1240,Grasp,12m,Central,23.571164284675,27.9133532947614,13.5696014212906,18.9173314425411,36.0224978652629,13.0020338745492,18.5487996427625,7.81954782443098,19.2073359529792,11.8703309786834,8.10531370558209,14.4375937737326,16.4273283357842,31.0286275905695,20.6182555665294,20.5055668117555,12.2896363589002,15.2165413210438,19.3822021241447
-1238,Grasp,12m,Central,23.5481976375128,27.8925976932703,13.5667981959813,18.8628381780042,36.0112972123915,13.0659159471176,18.6130418605298,7.83458926848475,19.1495379826667,11.8392735859382,8.11134350128485,14.4797772783233,16.3816877458688,30.9925469719407,20.6528553009298,20.5376984203786,12.3277490531619,15.2448783392725,19.3764504841049
-1236,Grasp,12m,Central,23.5242196053737,27.8705540553169,13.5681080217209,18.8082059609287,36.0007892069544,13.1308934528647,18.6767358987813,7.84881124112659,19.0913888749726,11.8084974079622,8.11707508200758,14.5210223932844,16.3335646046956,30.9585530177586,20.6860928183371,20.5646579844722,12.3665813360182,15.2723290913796,19.3708763820523
-1234,Grasp,12m,Central,23.4991009581782,27.8472415231039,13.5736536109377,18.7554735314088,35.9912469459306,13.1972755434422,18.7394018696876,7.86230921138328,19.032760147166,11.7777227832482,8.12245093028298,14.5612972791367,16.2833819596671,30.9260667899258,20.7177494899464,20.58636995452,12.405761650609,15.299487765282,19.3657460689145
-1232,Grasp,12m,Central,23.4726097261463,27.8227855916986,13.5845469479889,18.7045644420759,35.9826249774275,13.2645258137923,18.8006703303137,7.87535117992402,18.973648694341,11.7469327377356,8.12742407290961,14.600462922992,16.2318033288545,30.8946058297223,20.7476298549258,20.6027901911179,12.444931658302,15.3261313303915,19.3616336685714
-1230,Grasp,12m,Central,23.4449222684436,27.7973877164688,13.5993690568146,18.654315858861,35.9748797728833,13.3330639009762,18.8602362624769,7.88766938738504,18.9143721533234,11.7163350920006,8.13195956227094,14.6383938618611,16.1788133684271,30.8640140438171,20.7754902843105,20.6138903380568,12.4838410686887,15.3519344994178,19.3598633146898
-1228,Grasp,12m,Central,23.4163576869733,27.7711084128647,13.6169005291969,18.6045356559738,35.9683081418245,13.4025939740278,18.9178662657541,7.89920654493639,18.8544264306381,11.6860872320399,8.13605262112821,14.6750944237064,16.1241422435665,30.8345040137789,20.8011203997348,20.6196763861586,12.5223242641349,15.3768594189063,19.3589701380374
-1226,Grasp,12m,Central,23.3867020670172,27.7438500977103,13.6366327897332,18.5552931383049,35.9634481012396,13.4728871005443,18.9733691357421,7.90996615313065,18.7936904204136,11.6559894000849,8.14022593162563,14.7107245130031,16.0680655702188,30.8060718907513,20.8243147196204,20.6201649404365,12.5602631333985,15.4005894313772,19.3591039973797
-1224,Grasp,12m,Central,23.3557371346726,27.715613227279,13.658393998924,18.5067216363916,35.9606851715233,13.5440406083865,19.0266044189478,7.92001412763671,18.7321188830582,11.6257693825249,8.14479951724979,14.7453659116133,16.0109540455427,30.778435605866,20.8448672280996,20.6153959554394,12.5975890195467,15.4227604458793,19.3602397827444
-1222,Grasp,12m,Central,23.3243493440174,27.6864823849441,13.6828130714065,18.4590878247355,35.9605114011038,13.6163563579354,19.0774752007793,7.92963265686647,18.6697033059176,11.5953524845228,8.14917203386426,14.7789816147921,15.9530788908533,30.7509561351756,20.8626608550885,20.6054273825714,12.634271434544,15.4432998783029,19.3620043844926
-1220,Grasp,12m,Central,23.2936057706132,27.656547939612,13.7105916160395,18.4128634561057,35.9634714945994,13.6891789391302,19.1259250945243,7.93900509047146,18.6064708817343,11.5647327114688,8.1535928681026,14.8115217214442,15.8946936407139,30.7235514542124,20.8776987458271,20.5903317292244,12.6703113687964,15.4622011469973,19.3641212446944
-1218,Grasp,12m,Central,23.2621615359267,27.6258952066891,13.7404229010429,18.3684113241582,35.9698999446506,13.7620396246764,19.1719381806009,7.94827400984677,18.5424832571884,11.5339465587898,8.15822007756218,14.8429386726678,15.8361108043483,30.6962968295002,20.8896658403821,20.5701916389201,12.7057514539206,15.4795194791926,19.366560773249
-1216,Grasp,12m,Central,23.2297546998447,27.5946574425541,13.77183766913,18.3257672694727,35.9799305119758,13.834597281858,19.2155420570102,7.95762433021734,18.4778503726617,11.5030866725692,8.16305745116663,14.873219740333,15.7775610721709,30.6693589899467,20.898206786583,20.5451089648008,12.7407081444691,15.4953465595542,19.3695813628303
-1214,Grasp,12m,Central,23.1963030836575,27.5630076245167,13.8046339058309,18.2853716375149,35.9935697822756,13.9065493910774,19.2567816994517,7.9673064483766,18.4127279546699,11.4723024573824,8.16808897589706,14.9024455580567,15.7190806048698,30.6427044518412,20.9030999446571,20.5152044202434,12.7752006782397,15.5100763153208,19.373384879954
-1212,Grasp,12m,Central,23.1617471804562,27.5311720776449,13.8387420469234,18.2476980894698,36.0108787029639,13.97767866229,19.2956991180617,7.97718387726657,18.3473418321513,11.4419010884481,8.1733414394888,14.9308681899076,15.6607273887684,30.6161942452096,20.904196507147,20.4806629258861,12.8096070881657,15.5234484275971,19.3783800163763
-1210,Grasp,12m,Central,23.1259309306812,27.4994458231211,13.8743348707049,18.2121305221199,36.0320726509319,14.0479494581215,19.3322961082771,7.98737441916927,18.2820009738755,11.4126777331368,8.17889995542858,14.9585299581493,15.6027355680556,30.5897432665389,20.9014027914313,20.4418522226033,12.843255033536,15.5353573454576,19.3841513662217
-1208,Grasp,12m,Central,23.0886391394316,27.4683152614476,13.9119485086448,18.1784107029636,36.0571162351692,14.1176286736322,19.3665404166907,7.99794928104311,18.217040202878,11.3847003780194,8.18489423100506,14.9855124752907,15.5454842652104,30.5633935149137,20.8946755160959,20.3991872368832,12.8759506629605,15.5458559840337,19.3913801575846
-1206,Grasp,12m,Central,23.0498547904282,27.4391286000032,13.9528774680001,18.1464394668698,36.0857009385961,14.1869987158472,19.3983972366086,8.00896536512689,18.1529756478884,11.3580306883307,8.19152640742172,15.0116840572991,15.4894284105076,30.5373234385865,20.8840072930221,20.3524825429395,12.9076295069216,15.5551157655946,19.400542978128
-1204,Grasp,12m,Central,23.0097465603303,27.4133018681935,13.9954067732845,18.1161767686664,36.1178895821125,14.2562297725009,19.4278626258255,8.02052617967776,18.0912192166321,11.3327941822748,8.19907152785837,15.0368523394258,15.4349592310397,30.5118186089021,20.8695654902814,20.3016498993629,12.9382238320586,15.5631895449586,19.4111677277505
-1202,Grasp,12m,Central,22.968613205243,27.3897218069551,14.0403313926201,18.0876529608196,36.1540158032179,14.3253741190134,19.4549680958224,8.03286129009192,18.0306739534536,11.3089912329308,8.20761493616124,15.0610549470313,15.3822734877947,30.4871210695275,20.8513397227005,20.2486910330058,12.9676673637262,15.570226133279,19.4226277490717
-1200,Grasp,12m,Central,22.9268167978441,27.3676236804562,14.0888439319364,18.0609700003899,36.1938833410215,14.3932595047347,19.479784871414,8.04640345967314,17.9714253668557,11.2869379515658,8.21683078233904,15.084149314663,15.3314795036473,30.4637235360763,20.8291817742035,20.1917350346879,12.9959295277581,15.5760949088415,19.4349487849522
-1198,Grasp,12m,Central,22.8847090103676,27.3468084430125,14.1398061894263,18.0362736425659,36.2373228532716,14.4594129352648,19.5024306081661,8.06103392725234,17.9133868881962,11.2670938576275,8.22625191208119,15.1060684834687,15.2827599812057,30.4410579046994,20.8031818493346,20.1304108692349,13.0229852901118,15.5807458145741,19.4477927164428
-1196,Grasp,12m,Central,22.8425707569972,27.3272440834508,14.1919437812544,18.0137253560996,36.2843320848152,14.5235552616971,19.5231131319422,8.07702760878358,17.8564167239137,11.2493020985229,8.23553982878926,15.1268646432269,15.2364993786938,30.4189152507723,20.773358664856,20.0647487524734,13.0486433458511,15.5843407871342,19.4600539951783
-1194,Grasp,12m,Central,22.8004635210612,27.309058098333,14.2446750359475,17.9934566742604,36.3348632355454,14.5854930404075,19.5423859600529,8.09469196584685,17.8004899259495,11.2337089775621,8.24451624360597,15.1465759596395,15.19313336025,30.3972692061377,20.7396752609519,19.994820417108,13.0726547141625,15.5872141001612,19.4714888097491
-1192,Grasp,12m,Central,22.7587110857488,27.2925739257751,14.2977324678257,17.975657341305,36.3888045496498,14.6461786994271,19.5617226935433,8.11400008648086,17.7457456900188,11.2205667380922,8.25311904135572,15.1652617220849,15.1526078833362,30.3762066304948,20.7021536347626,19.921039741528,13.0948638493369,15.5892879634539,19.4820509099788
-1190,Grasp,12m,Central,22.7171145377994,27.2781059250755,14.3510630840823,17.9604678667147,36.4457296545652,14.7046416743241,19.5809980248493,8.1348697379359,17.6913666446785,11.2098908443937,8.26136837506866,15.1829901024651,15.1148546105886,30.3557804310767,20.6609010591737,19.8437949887888,13.1151804766699,15.590424481853,19.4917044996848
-1188,Grasp,12m,Central,22.6751183801429,27.2657202426727,14.4048076283394,17.9476648438917,36.505008554949,14.7613093515749,19.5996281204007,8.15733918483479,17.636937897775,11.2017350925016,8.26935774189038,15.1998748788493,15.0798779507802,30.3367559594375,20.6162310716611,19.7626124244594,13.1335551686258,15.5906753837221,19.5003612536875
-1186,Grasp,12m,Central,22.6327084277548,27.2560859327992,14.4588390883604,17.9371049475294,36.5662101094404,14.8154224461804,19.6179363866659,8.18150596993056,17.582230728518,11.1962445957534,8.27726302848251,15.2160505614874,15.0477530141463,30.3189041089625,20.568227327372,19.6775616594467,13.1499696702754,15.5900154813018,19.507941099821
-1184,Grasp,12m,Central,22.5901627273423,27.2488701084973,14.5129248324741,17.9285971636445,36.6291182412838,14.8667964060673,19.637300663731,8.20713651208555,17.5271262541777,11.1933604051653,8.28525742233991,15.2316896621678,15.0186823573609,30.301737432117,20.5170607915947,19.5888526134619,13.1644439677564,15.5884647602141,19.5144185733515
-1182,Grasp,12m,Central,22.5474877812979,27.2440397414349,14.5671924027297,17.9216770913615,36.6936476706436,14.9154294512053,19.6563546642795,8.23425433738067,17.4715964209854,11.1930167416664,8.29330276802038,15.2464621781837,14.9928918608375,30.2853783413642,20.4633906517986,19.4968088054097,13.1770553861366,15.586121313062,19.5197975967399
-1180,Grasp,12m,Central,22.5043341933359,27.241722393886,14.6222659392175,17.9158665425843,36.7596658774509,14.9619328919828,19.6752197129684,8.26322298479806,17.4156931363972,11.1952386662567,8.30133855980971,15.2604442569179,14.9702369693364,30.2706307344792,20.4071427671941,19.4019053025214,13.1879308156439,15.5831734763549,19.5243505325811
-1178,Grasp,12m,Central,22.4604093591914,27.2422199620571,14.6774869353419,17.9109667908648,36.8270263019677,15.0063833889797,19.6948242851166,8.29458412731775,17.3595476721325,11.2000542171268,8.30918696215132,15.2735921606306,14.9508733260774,30.2577333655038,20.3487456624605,19.3046514280946,13.1971372006308,15.5798713136987,19.5278020335775
-1176,Grasp,12m,Central,22.4157829394135,27.2449027736435,14.7326781696042,17.906761463066,36.896546316501,15.0481328910295,19.7136015451349,8.32778789820481,17.3033764636397,11.2083564178408,8.31660114111242,15.2857607913988,14.9349650513011,30.2459575533849,20.2886778370445,19.2052325399305,13.2047011291829,15.5765193665271,19.5294331595935
-1174,Grasp,12m,Central,22.3710933432483,27.2495886802403,14.7878030758151,17.9028159343401,36.9673747988189,15.0871554181628,19.7314734396581,8.36252641414703,17.2474866119175,11.2196296076687,8.32346280756425,15.2969488653324,14.9225576032319,30.2351362075482,20.2281400077104,19.1035059455313,13.2108780023163,15.5730801353091,19.5288135225552
-1172,Grasp,12m,Central,22.3258086505036,27.2564233327336,14.843051133285,17.8989035287233,37.0395528341941,15.1234941765175,19.7485369045172,8.39861572199779,17.1921881948373,11.2331388620158,8.32972959118855,15.3073733886086,14.9133742065524,30.2251520891182,20.1666642566365,19.0003291788803,13.2160850589901,15.5696274648201,19.5256483616946
-1170,Grasp,12m,Central,22.2799878150132,27.2656700445805,14.899295084295,17.8949716262223,37.1130409907316,15.15720076034,19.7651336793466,8.43569131909581,17.1376548270245,11.2487333852021,8.33538194482893,15.3170883398195,14.9070466832328,30.2157755380057,20.1041304077918,18.8954582264417,13.2200896560291,15.5665599918215,19.5197283685554
-1168,Grasp,12m,Central,22.2338369224782,27.2774695924364,14.9569548708175,17.8910666192976,37.1876267252925,15.188322083985,19.7818214046239,8.4735949635444,17.0840358952134,11.2663387070864,8.34040802226853,15.3257331075989,14.9033756778105,30.2068940795098,20.0408611435815,18.7881281708525,13.2228532760325,15.5636046781096,19.5109204459066
-1166,Grasp,12m,Central,22.1875937103325,27.2917102552492,15.0155522628081,17.8872967134287,37.2631252139647,15.2168557087319,19.7984162901475,8.51245366888042,17.0315115478556,11.2857947233941,8.3447994865688,15.3332536848138,14.9021452569588,30.1993655877549,19.9772909489011,18.6784811121057,13.2245576170749,15.5605696461553,19.4991262900863
-1164,Grasp,12m,Central,22.1415074476451,27.3076691654401,15.0749248298429,17.8838380541823,37.3396621781603,15.2427692772727,19.8146220461364,8.55239061416487,16.9802470882195,11.306902609603,8.34857137213224,15.3397765626795,14.9032741078879,30.1927329526458,19.9135955254718,18.5667389811231,13.2255639918473,15.5575742849284,19.4842794908778
-1162,Grasp,12m,Central,22.0958706966706,27.3247934744332,15.13486976165,17.8809309440093,37.4169473923937,15.2662204171717,19.8304662797157,8.593412525957,16.9303289839986,11.329569945578,8.35179260857659,15.3453123151839,14.9068099591752,30.1866095741379,19.8496476942154,18.4531929758569,13.2261862775348,15.5548018542584,19.4663454855418
-1160,Grasp,12m,Central,22.0510547329916,27.342722757841,15.1951713063001,17.878902384812,37.4954904615258,15.2875028215689,19.8456988076218,8.63514160502309,16.8819794046404,11.35381131011,8.35461522310591,15.3500267382026,14.9122352136492,30.1809919501244,19.7853944820151,18.3382772676076,13.2263766656244,15.5523357006662,19.445335355563
-1158,Grasp,12m,Central,22.0073277290833,27.3620992141008,15.2555804114069,17.8785974026085,37.5750340289875,15.3063368943659,19.8599636068976,8.67720639045717,16.8355377654404,11.379760250385,8.35714225347756,15.353691551631,14.9191610062117,30.1758191235845,19.7209160104912,18.2230626962033,13.225886462995,15.5501891245179,19.4212991269622
-1156,Grasp,12m,Central,21.9652142965647,27.3832612121159,15.3160447596175,17.8809737318084,37.6541547843886,15.3225111802444,19.8730670450354,8.71946875470997,16.7912688838488,11.4079566982941,8.35935584336336,15.3564232145923,14.9274477109316,30.1711959805296,19.6563884062563,18.1090656236762,13.2240812171738,15.5485279989681,19.3943366647597
-1154,Grasp,12m,Central,21.9256748869503,27.4051368451493,15.3777214137466,17.8850029411694,37.7323189749987,15.3359858346764,19.884919357526,8.76180535971621,16.7498766959155,11.438258844722,8.36128483165617,15.3583198085575,14.9370628665316,30.1675792099266,19.5920174115143,17.9952563861201,13.2206244968675,15.5482446791177,19.3645880944679
-1152,Grasp,12m,Central,21.8882705401928,27.4274039423801,15.4396622717744,17.8906194277778,37.8090213191288,15.3468449051716,19.8955012034653,8.80408174702934,16.711633744313,11.4706231308067,8.36303247335603,15.3593768185592,14.948111817264,30.1640338397781,19.527995064239,17.8810489597313,13.215361112306,15.5483161471985,19.3322602998131
-1150,Grasp,12m,Central,21.8522780714462,27.4497341623443,15.5006443277364,17.898024937972,37.8841604341125,15.3552565503285,19.9048790289952,8.84617466473087,16.6760672487659,11.5049042842478,8.36475415087584,15.3599265937696,14.9607896430132,30.1599097818511,19.4645175421646,17.7664491103663,13.2082172271439,15.5487129904574,19.297966651374
-1148,Grasp,12m,Central,21.8174312515679,27.4717765030796,15.5603266553767,17.9067114803165,37.9581834097213,15.3614473371637,19.9132129777888,8.88799410980338,16.643053091976,11.5409271998695,8.36665023140089,15.3598222005482,14.9751951086296,30.1550395159362,19.4018104791663,17.6516321695411,13.1991722820136,15.5493973194303,19.2619867068174
-1146,Grasp,12m,Central,21.7836028834204,27.4932327210162,15.6184208601638,17.9159391886398,38.0298904383575,15.3656422358392,19.9207533979759,8.92952082098356,16.6132682230854,11.5788356750212,8.36897963162473,15.3588539666557,14.9911464780731,30.1493885451314,19.3401390649523,17.5368962264701,13.1882541313071,15.5503441122598,19.224306632391
-1144,Grasp,12m,Central,21.7503668581578,27.5138844223796,15.6746242371444,17.9266475854258,38.0990911610374,15.3679749776894,19.9277919104495,8.97092478396016,16.5860372331692,11.6181923642596,8.3721649279905,15.3569775591873,15.0085139338495,30.1430438375738,19.2798916290864,17.4227826305414,13.1756035912161,15.5519506932177,19.1853864920867
-1142,Grasp,12m,Central,21.7175312154054,27.5334463900514,15.7286540709563,17.9383632710709,38.1657022957594,15.36844507699,19.9345054678609,9.01250116626817,16.5611444805268,11.6586656999177,8.37674967909194,15.3541501379357,15.027268996918,30.1362171231153,19.2215796855514,17.3104906688975,13.1614695061182,15.5539474621275,19.1451394774259
-1140,Grasp,12m,Central,21.6850552174654,27.5515963831641,15.78028957485,17.9495398966029,38.2292423733344,15.3670561715469,19.9408750160038,9.05388875475265,16.5387926478245,11.7002586438781,8.38256460870136,15.3505093312627,15.0475271903211,30.1289008192358,19.1656298857124,17.2017814449187,13.1458570113635,15.5562468784043,19.103677659227
-1138,Grasp,12m,Central,21.6529907889753,27.5681636566206,15.8293765718779,17.9598919817245,38.2893109933518,15.3638372300747,19.9467641167945,9.09478358897304,16.5194428005242,11.7430739393898,8.38924829170837,15.3461214244015,15.0694621299268,30.1207300766271,19.112816394773,17.0984825529542,13.1286453377733,15.5588736335291,19.0608777789735
-1136,Grasp,12m,Central,21.6213883658704,27.5828731438447,15.8758431379488,17.9692833938829,38.345684770421,15.358790478555,19.9520802590076,9.13501699966306,16.5028121407095,11.7872137813142,8.39668608044439,15.3414091443737,15.0921575150168,30.1114687453494,19.06311442218,16.9996820767714,13.1098149894354,15.5619624922758,19.0167949793954
-1134,Grasp,12m,Central,21.5900817187935,27.5954746751955,15.9198136640804,17.9776456121096,38.3981816458251,15.3518166223393,19.956807117151,9.17450591086009,16.4889395754982,11.8328803242107,8.40486826909525,15.3362906142899,15.1153583880393,30.1009380600904,19.0162541344584,16.9028609225759,13.0893832998834,15.5654183816901,18.9714702838331
-1132,Grasp,12m,Central,21.5593842059139,27.6056229917325,15.962309285392,17.9849965152365,38.4466759501518,15.3428206821833,19.9610137984034,9.21323929494222,16.4789141554287,11.8799924733412,8.41385276717168,15.3301623502863,15.1392740041725,30.0890379788379,18.9721821996368,16.8077760648022,13.0674181802552,15.5688323468302,18.9249522496073
-1130,Grasp,12m,Central,21.5289216643011,27.6129842011973,16.003460909404,17.9914155840587,38.491091884567,15.3318016050102,19.9648010738666,9.25125280288164,16.4721373370013,11.9283114317206,8.42371403185113,15.3230916025403,15.1643492431891,30.0757583580457,18.9309057771389,16.7147479629932,13.0446456043072,15.5722011446483,18.8777251309759
-1128,Grasp,12m,Central,21.4987698349346,27.6174583744412,16.0420648807062,17.9970553284451,38.5314622581285,15.3188631529174,19.9683188053555,9.28853475443439,16.4677553054446,11.9778258113186,8.43446328223491,15.3151367010492,15.190002683483,30.061290302693,18.8931526035364,16.6242397700543,13.0210459351754,15.5755403106935,18.830203687423
-1126,Grasp,12m,Central,21.4691448018927,27.6189968091575,16.0780163369943,18.0022439345792,38.5679450424388,15.3041632382077,19.9723378923162,9.32500058369766,16.4659154247186,12.0278912205597,8.44603723280636,15.3063935674528,15.2159892180147,30.0461618903629,18.857965534906,16.5365545480011,12.9964881611572,15.5788749279566,18.7820628021554
-1124,Grasp,12m,Central,21.4402185542916,27.6173984600171,16.111484913871,18.0072158894255,38.6006077661608,15.287850035294,19.9784332932244,9.36036106866039,16.4667765834387,12.0781621845316,8.45836516461488,15.2970846465903,15.2429522874819,30.0300719036254,18.8251500764808,16.4526652315921,12.9712974253244,15.5822042531663,18.7334370813748
-1122,Grasp,12m,Central,21.4116712739946,27.6123612116672,16.1428263098931,18.0120290152438,38.6293177214772,15.2699524933596,19.9850562334482,9.39443528084398,16.47008334663,12.1284554878127,8.47141829120248,15.2872037550818,15.2698069249942,30.0128594798725,18.7947314244422,16.3716281269901,12.9457799356795,15.5854568679484,18.6838991099418
-1120,Grasp,12m,Central,21.3839980514937,27.6038528402066,16.1724282238641,18.0164275821379,38.6538602112848,15.2503720136607,19.9917153568301,9.42713044591316,16.4755295200778,12.1786437059353,8.4852346088396,15.276917616789,15.2961947064297,29.994511402387,18.7702112460939,16.2931650157709,12.9198992541515,15.5885598111237,18.6333505849546
-1118,Grasp,12m,Central,21.3570884697744,27.5921761866623,16.2003346339123,18.0208575868135,38.6739636921459,15.2289439954614,19.9984821058583,9.45838273337573,16.4829942911074,12.2286644539402,8.49992698867665,15.2661996259883,15.3218659372379,29.975038664764,18.7486975603229,16.2180148040202,12.8933220533402,15.5914999110315,18.5818525571557
-1116,Grasp,12m,Central,21.3311286988991,27.5767576633767,16.2266211175278,18.0248263050645,38.6894188791268,15.2056223047596,20.0054131374829,9.48812751268643,16.4923165384186,12.2785568385045,8.51565057908424,15.2548099732229,15.3466084237142,29.9545885406979,18.7299008749754,16.1462703042745,12.8658495498031,15.5948686520008,18.5296490511394
-1114,Grasp,12m,Central,21.3059825712418,27.5577638221975,16.2518031407552,18.0284141379166,38.7000881786026,15.1805618496222,20.0127915743327,9.5162848097203,16.5032346148919,12.3284603094101,8.53282471896387,15.2424755140471,15.3702434981087,29.9335536246649,18.7139454415403,16.0780870791845,12.8374288956293,15.5985668072541,18.4777578759249
-1112,Grasp,12m,Central,21.2814171569482,27.5354510204922,16.2753407894437,18.0311414723728,38.7059696996581,15.1540652303476,20.0216732732622,9.54279330434249,16.5154693011415,12.3784358383318,8.55147808777525,15.2289365757143,15.3926218230774,29.9123041048125,18.7009056863917,16.0141877326527,12.8080159488357,15.6025026724512,18.4262321193985
-1110,Grasp,12m,Central,21.2573066066556,27.5094581507642,16.2961246428157,18.0327580363438,38.7073256472458,15.1261135966213,20.0305091683243,9.56760937520314,16.5287757756746,12.4283563330661,8.57069731703645,15.2140527031442,15.4135890328492,29.8908849936487,18.6918375587261,15.9556432300465,12.777612436487,15.606639134446,18.3749397441774
-1108,Grasp,12m,Central,21.233619931087,27.4795479142538,16.3136534905561,18.0332067635399,38.7045744297893,15.0966427692486,20.0391006065119,9.59069400612468,16.5429699806743,12.478069207387,8.59035746661756,15.1977902035855,15.4329714934985,29.8693444141823,18.685935184353,15.903925862183,12.7462780893064,15.611345670707,18.3240926068147
-1106,Grasp,12m,Central,21.2103954431918,27.4457097188025,16.3276585497593,18.0325265943848,38.697774669976,15.0659716192187,20.0474222779871,9.61200203141666,16.5579269525278,12.5274790950704,8.61073442281207,15.1801934209183,15.4505816687358,29.8478167054028,18.6826673630191,15.8609297779833,12.7140402584271,15.6166699003453,18.2741090185581
-1104,Grasp,12m,Central,21.1875369137836,27.4078820688401,16.3379845116205,18.031051828567,38.6863006850378,15.0344784304609,20.0554613398357,9.63149138451444,16.5736026844473,12.5765694983747,8.63141355743306,15.1614373779093,15.4662540471471,29.8264017125852,18.6818779069073,15.8257147770098,12.6811924489801,15.6229635735046,18.2254147610911
-1102,Grasp,12m,Central,21.1642796145241,27.3662064830339,16.3445575291509,18.0294671092379,38.6701041563063,15.0032235744933,20.0631696685513,9.64913696423148,16.5900861645579,12.6251139411876,8.65195924884622,15.1417269042401,15.4798567462226,29.804909594443,18.6835739747151,15.7967484257904,12.6487193307813,15.630509084704,18.1773858138168
-1100,Grasp,12m,Central,21.1403509703992,27.3208887827047,16.3473715828358,18.0272947696295,38.6492714765665,14.9720453680522,20.0704366898718,9.66494476468237,16.6076628890609,12.6730907998151,8.67220508791806,15.1210425107153,15.4912896229237,29.7832372059749,18.6877566851617,15.7752674738698,12.6159548400699,15.6388300049487,18.1297527470718
-1098,Grasp,12m,Central,21.1158675404691,27.2720715162304,16.3465122899798,18.0240943995779,38.6238736843277,14.9406488084932,20.0771050415179,9.67895184025697,16.6265512894588,12.7205488576232,8.69205648217399,15.0994082638227,15.5004843053796,29.7613971167447,18.694389497732,15.7604124241731,12.58267618551,15.6476873759859,18.0823137082046
-1096,Grasp,12m,Central,21.0918614420713,27.2196357288547,16.3422269126846,18.0198596099888,38.5939878653884,14.9089001330558,20.0829909874302,9.69115231928439,16.6463801980876,12.7675260330452,8.71144065720378,15.0769372936268,15.5073970639135,29.7394053714573,18.7035810632131,15.7523137816871,12.5489222821224,15.6568968886167,18.0348720890395
-1094,Grasp,12m,Central,21.0680903335057,27.1634920720505,16.3346744967984,18.0147326757277,38.5597202890399,14.8764267528659,20.0879257354392,9.70149302539767,16.6670549663469,12.8140058453015,8.73029018892333,15.0537029001612,15.5120228517484,29.7173167027684,18.7156884530107,15.75444361065,12.5146800223639,15.6665115793039,17.9873840084742
-1092,Grasp,12m,Central,21.0445563716144,27.1038182889403,16.3238115213904,18.0088552606415,38.5211742695632,14.8434417486228,20.0917965928286,9.70994528205759,16.68846670994,12.8600175190845,8.74852519181776,15.0297384810809,15.5144005074573,29.6952672813134,18.7306917974172,15.762904353683,12.4799756403481,15.6766864678802,17.9400639970742
-1090,Grasp,12m,Central,21.0213702018155,27.040307005045,16.3097550458375,18.0019155808986,38.4783905332555,14.8103724783255,20.0946004257825,9.71651382449271,16.7102267026451,12.9056866083578,8.76603893290612,15.0051551392548,15.514614751617,29.6735108508541,18.7475716714306,15.7755315161403,12.444916355355,15.6874898247712,17.8934913054205
-1088,Grasp,12m,Central,20.9986266995522,26.9729031398557,16.2927027068472,17.9938287402225,38.4313635733869,14.7771333325188,20.0963640613756,9.72122701742791,16.7321457522468,12.9508868280005,8.78270739500829,14.9803479743562,15.5127919707526,29.6530830685656,18.7663220108357,15.7923310307865,12.4097904931283,15.6991559424692,17.8481684200248
-1086,Grasp,12m,Central,20.976731830451,26.9014965728022,16.2728148604583,17.9847667634862,38.38008465911,14.7433393944219,20.0968842514824,9.72412900034939,16.7547614820818,12.9953509071323,8.79840788122443,14.9555269318114,15.5090624673369,29.6335523880781,18.7871188966361,15.8136436880655,12.3748958641063,15.7117935870546,17.8036326387336
-1084,Grasp,12m,Central,20.9556642762192,26.8259825208424,16.2506187302952,17.9749793666231,38.324614736065,14.7086560885723,20.0959160254386,9.72552276593891,16.7778408477103,13.0389341424166,8.81304233332152,14.9306275947184,15.503546874488,29.6149159517384,18.8102638560791,15.8392033386907,12.3402260910415,15.7250575386374,17.7591983595707
-1082,Grasp,12m,Central,20.9352368136034,26.7464924455666,16.2264975296559,17.9646768457246,38.2650676863434,14.6733339790496,20.0933060133969,9.72581881081133,16.8005233345154,13.0815398591674,8.82654453467293,14.9059463520217,15.496342131073,29.5972720272657,18.8360800704395,15.8682805136064,12.3059055906826,15.7385327139195,17.7146246967879
-1080,Grasp,12m,Central,20.9152845810828,26.6632775214237,16.2011688951664,17.9539592793025,38.2016031778983,14.6376220326892,20.0889604870018,9.7246221675231,16.82272045673,13.1231019026125,8.83889046076375,14.881426025065,15.4875703580976,29.5807800149949,18.864774042174,15.9006132347984,12.2722065400183,15.7520072535106,17.6699108154811
-1078,Grasp,12m,Central,20.8960330250707,26.5767171836396,16.1744400743315,17.942841576246,38.1345447543301,14.6023367526102,20.0828324975602,9.7217605749418,16.8444147047599,13.1635834875451,8.85011888165207,14.8569673441928,15.477470187175,29.5656045500771,18.896454232531,15.9362965684539,12.2394739538375,15.7653889540825,17.6251876580602
-1076,Grasp,12m,Central,20.8777116342319,26.4872813644458,16.1447847203041,17.9313633679405,38.0642602005307,14.5674858920575,20.0749013111838,9.71722263384927,16.8656229470932,13.2029465064124,8.86031014388897,14.8325256025211,15.4662758208875,29.5519059013708,18.931363871275,15.9753545929052,12.2080232890885,15.7788535655513,17.5807121723379
-1074,Grasp,12m,Central,20.8594180245846,26.3954451978028,16.1119931081642,17.9198149986037,37.9905746996788,14.5327702985648,20.0651827043129,9.71099891071792,16.8863447530827,13.2411623712562,8.86947244053475,14.8081548380582,15.4544771075053,29.5400911761307,18.969964048926,16.0177045858045,12.1779523521232,15.7922070316027,17.5369891551279
-1072,Grasp,12m,Central,20.8410242789272,26.3017908311028,16.0760548326656,17.9090839337893,37.9133946248148,14.498191300219,20.0537235977707,9.70321900858779,16.9064969883191,13.2782081389746,8.8775043498267,14.7839294612508,15.4417577609827,29.5297966358846,19.0131821453069,16.0633510606936,12.1491591111133,15.805517353755,17.4946036881861
-1070,Grasp,12m,Central,20.8224245324125,26.2069908540603,16.0370680727169,17.8995296992874,37.8328180217602,14.4640046153806,20.0406028032998,9.69403079839323,16.9259421297784,13.3140532248499,8.88436636664336,14.7597979295352,15.4279314436249,29.5210452590257,19.0611524212932,16.1123492180607,12.1214663457253,15.8196821134576,17.4538485703198
-1068,Grasp,12m,Central,20.8033454828036,26.110241207592,15.9953474431931,17.8908784181836,37.7490284721678,14.4302040266443,20.0259461773031,9.68327219875414,16.9446308862295,13.348680553921,8.89005609185164,14.7358193895006,15.4130272259949,29.5140572680787,19.1131896225776,16.1647728793274,12.094677857114,15.834025235665,17.4146482836882
-1066,Grasp,12m,Central,20.7837455357844,26.0114543790956,15.9514100905705,17.8839092209459,37.6622505366215,14.3962658832809,20.0100540047042,9.67092868860001,16.9626092174727,13.3821101937618,8.89435866698171,14.7120460978079,15.3971269866719,29.5091746762247,19.1686158687441,16.2206607930715,12.0687052370629,15.8484275382628,17.3768879549274
-1064,Grasp,12m,Central,20.7635918504852,25.9109350191058,15.9052657897039,17.8790756107189,37.5727632021082,14.3619810154577,19.9943928317942,9.65693220225881,16.9798749347223,13.4144096246868,8.89704568462457,14.688474510563,15.3803548212274,29.506314226256,19.2268288789481,16.2799346567915,12.0435339344587,15.8629350829183,17.3409129228251
-1062,Grasp,12m,Central,20.7428038076567,25.8094912664919,15.8565753433194,17.8755557934249,37.480871954648,14.327346308668,19.97869045084,9.64128198897763,16.996489619441,13.4456386550193,8.8979976641305,14.6654107816181,15.362879792827,29.5053334767237,19.2870998367304,16.3420844191738,12.0189370622336,15.877478914436,17.3075803436885
-1060,Grasp,12m,Central,20.7218331519625,25.7080006318273,15.8052299763242,17.873540298729,37.3869411109314,14.2924561720457,19.9625882074737,9.62401873543783,17.0124688299718,13.4758130731976,8.89716275014281,14.6427118342106,15.3450336533449,29.5062748387018,19.3490534248901,16.4058846546656,11.9948108197535,15.891836364808,17.2751977533047
-1058,Grasp,12m,Central,20.7006882775887,25.6060855157654,15.7512621711261,17.873568737416,37.2914001233611,14.2574838767382,19.9460376215168,9.6052149708185,17.0277813031399,13.5049133604803,8.89452070451402,14.6204796400097,15.3271432582478,29.5094189181368,19.4126527068409,16.4700647783555,11.9712257080404,15.9057624610015,17.2436156483531
-1056,Grasp,12m,Central,20.6793737283804,25.5035697331682,15.6948387395517,17.8758064388839,37.1948605726557,14.2227338050461,19.9288695685068,9.58493456169713,17.0424776398808,13.5329310735231,8.8900782868206,14.5989049141431,15.3098088769533,29.5149031270469,19.4771739820072,16.5341542099887,11.9482380482068,15.9193858847226,17.2130986975465
-1054,Grasp,12m,Central,20.6582296004076,25.400527065958,15.6363037982275,17.8800726474806,37.097812796673,14.1883205790824,19.9110774563002,9.56324541307258,17.0566218336511,13.5598841090542,8.8838611663589,14.5777353685236,15.2931186722528,29.5226410162133,19.5422849493945,16.5977349628046,11.9254492755707,15.9324342856702,17.1831055069073
-1052,Grasp,12m,Central,20.6375016594058,25.2971324342319,15.5756117351616,17.8861518417991,37.0002539755206,14.1541114750402,19.892818619712,9.54032548124213,17.0700101255162,13.5858081923178,8.87590970257074,14.5568660344125,15.2767189544528,29.5329089193901,19.6079160876583,16.6603936102135,11.9027194845201,15.9449288087001,17.1530849511894
-1050,Grasp,12m,Central,20.6173559010131,25.1937804630088,15.5126671831525,17.8948700105635,36.9021088940631,14.1200368228826,19.8743735864715,9.51642392089908,17.0823729760204,13.6107322482406,8.86625526454964,14.536419585563,15.2607395337245,29.546055479108,19.6744771927562,16.7213985662282,11.8800431647604,15.9568348759163,17.1227299555503
-1048,Grasp,12m,Central,20.597639689891,25.0912246684353,15.447556448405,17.9056589287489,36.8034081733003,14.086134373366,19.8561359442245,9.49164692356721,17.0935915522683,13.6346757366912,8.85490470239719,14.5166107571188,15.2453238646152,29.5622324217771,19.7419279818505,16.780324833151,11.8573916071006,15.968041673633,17.0919479489887
-1046,Grasp,12m,Central,20.5785036402274,24.9901124759204,15.3804282761413,17.9178972686426,36.7043773515523,14.0524713956824,19.8386119453071,9.46607793170147,17.1036387791575,13.6576512618795,8.84185214636099,14.4974018297692,15.2307160516592,29.5815755940327,19.8098487028661,16.8369395141808,11.8346878185112,15.9783774382007,17.0608456038263
-1044,Grasp,12m,Central,20.5600049089787,24.8909757324374,15.3114702223603,17.9341515170418,36.6056779490626,14.0190462439281,19.8216804620386,9.43972134054808,17.1125234966916,13.679634681358,8.827108953155,14.4793480794574,15.2175780942421,29.6046335164474,19.878265638613,16.8912111801382,11.8118278768825,15.9878529790296,17.030130771712
-1042,Grasp,12m,Central,20.5423149540028,24.7950118470373,15.2409053617068,17.9528357124058,36.5078869228045,13.9858119388646,19.8048529710726,9.41250525002846,17.1202526950139,13.7004808463393,8.81076042808474,14.4627339410117,15.2062817956769,29.6304846396876,19.9468481194296,16.9433947316283,11.7886412617513,15.9966369525334,17.0010934980684
-1040,Grasp,12m,Central,20.5261288645618,24.7028996241425,15.1689994075686,17.9734871782013,36.4111290125499,13.9528375529615,19.7882879575326,9.38435926834055,17.1268302242938,13.7200139811872,8.79296724424854,14.447492430534,15.1966157606481,29.6588150624592,20.0153495762422,16.9940978150868,11.7649437251137,16.0047808628055,16.9736928526358
-1038,Grasp,12m,Central,20.5104472639116,24.6148442552451,15.0960688894884,17.9956147589851,36.3164517167138,13.9207727813547,19.7721889630392,9.35520335754016,17.1322682096602,13.7381360384467,8.77368103599526,14.4335514502143,15.1883334765731,29.6893156462098,20.0839268131851,17.0437419103467,11.7406254942241,16.0122440873794,16.9477204365969
-1036,Grasp,12m,Central,20.4949193771519,24.5296635373874,15.0225290792675,18.0189628128116,36.2243369837142,13.8891195376699,19.7563812177682,9.32491601681238,17.1366039150311,13.7548033624792,8.75291299675322,14.4215948905182,15.1813681269378,29.7217924775001,20.1527334932545,17.0920192739664,11.7156602464242,16.0191662738036,16.922384445016
-1034,Grasp,12m,Central,20.4795719447221,24.44658897515,14.9490913441136,18.0434375775236,36.1342896567858,13.8570535721861,19.7412373049536,9.29341030771124,17.1399029344906,13.7700040595068,8.73074183411254,14.4112352658558,15.1755716052726,29.7562256911405,20.22187597766,17.1383845025288,11.690090121929,16.0258193429769,16.8978017838519
-1032,Grasp,12m,Central,20.4644186727401,24.3652841158557,14.8768371184689,18.071025652936,36.0460613792404,13.8243325947072,19.7260040147135,9.26066975673815,17.1422538051183,13.7837487339776,8.70723980884376,14.4020774222621,15.1708435074474,29.7929547370002,20.2912161250724,17.1822608047345,11.6640728556989,16.0319401771937,16.8739825172763
-1030,Grasp,12m,Central,20.4495012311573,24.2854981374778,14.8063417260777,18.1013318941805,35.9597659684784,13.7908167983472,19.7101684127106,9.22673818436175,17.1437811038305,13.7960504255519,8.68245476049535,14.3939092333656,15.1676401620754,29.8319639360689,20.3604423310309,17.223115163118,11.6380338511406,16.0377053191315,16.8506769059468
-1028,Grasp,12m,Central,20.4350490783467,24.2068907195476,14.7372754490517,18.1326467217696,35.8756354695443,13.7564060364285,19.6935681017829,9.19168394107721,17.1446318607387,13.8068907060374,8.65640158762434,14.3867276325713,15.1656446627272,29.8729764793333,20.4294551605953,17.2605627423994,11.6117987351113,16.044857297804,16.8275995473126
-1026,Grasp,12m,Central,20.4213065238033,24.1291565523447,14.6700652638954,18.1646655242214,35.7939420106223,13.7210279540084,19.6761318914967,9.15558248412876,17.1449764694211,13.8162406103355,8.62989741587967,14.3809901383014,15.1641661219931,29.9160721640269,20.4982040287624,17.2943949092103,11.5852408943697,16.0515662526473,16.8045131865228
-1024,Grasp,12m,Central,20.4078712088398,24.0520713337317,14.6051365809531,18.1970523730254,35.7149956032537,13.6846468465109,19.6578419608998,9.11852031964501,17.1450145445807,13.8240713509336,8.60309930775022,14.3762656313205,15.16301373309,29.9617095572804,20.5667730489728,17.3246306634724,11.5584065040662,16.0577945687451,16.7811666357648
-1022,Grasp,12m,Central,20.3947108493921,23.9755066596608,14.541801198513,18.2304195167342,35.6391909421676,13.6473439024647,19.6387112804058,9.08058034876785,17.1449645051717,13.8303557621103,8.57506036735282,14.3724279375285,15.1620908414721,30.0101876151396,20.6354547066497,17.351793278751,11.531394741257,16.0632862208439,16.7573039632065
-1020,Grasp,12m,Central,20.3819271185396,23.8994340688425,14.4796405835816,18.2650311091529,35.5670633996792,13.60973265061,19.6187682911492,9.04187989706687,17.1450656701681,13.8350779496002,8.54585263096911,14.3692635587746,15.1613398020182,30.0604946090195,20.7040188722238,17.3765148144276,11.5044159686625,16.0678199799357,16.7327111788649
-1018,Grasp,12m,Central,20.370055612186,23.8238215248936,14.4186746376201,18.2998319422207,35.4990963797296,13.5716951615329,19.5980313398412,9.00308746366989,17.1455734634092,13.8382377498974,8.51560290434872,14.3665735462733,15.1607264897013,30.1119685800477,20.7723543335769,17.3981884019881,11.4778835163833,16.0714334338187,16.707233646377
-1016,Grasp,12m,Central,20.3591299565491,23.7486916952882,14.3592547521971,18.334746016731,35.4355667560226,13.5326630039862,19.5765125866793,8.96397195580367,17.1467649751178,13.8398603988213,8.48449232645018,14.3642255585739,15.1602606948215,30.164228988881,20.8405180028517,17.416433432205,11.4518869826497,16.073906518591,16.6808095150318
-1014,Grasp,12m,Central,20.3491819943525,23.6744661105001,14.3016528478341,18.3699422960976,35.3777432507819,13.4925961566314,19.5542138581234,8.9243311711299,17.1489399101695,13.8399892412346,8.45274172039419,14.3622280478558,15.160179530221,30.2169564487732,20.9079007221643,17.4312134305452,11.4267397354779,16.0749775736349,16.6534771386998
-1012,Grasp,12m,Central,20.3403821719818,23.6026389367667,14.2458902271302,18.405615020339,35.3251351826576,13.4515979025531,19.5311790758618,8.88423688419639,17.152505617135,13.8387040161445,8.42064271575632,14.3603194532645,15.1607845159644,30.2699152560309,20.9743877063776,17.4425860114142,11.4029898738212,16.074486123665,16.6253883631326
-1010,Grasp,12m,Central,20.332613965,23.5324916185783,14.1923572666148,18.4415910894896,35.2772333227819,13.4098496717268,19.5075083713219,8.84383053090228,17.158230469696,13.8361059330732,8.3886367316451,14.3583704525962,15.1617763480082,30.3229406834316,21.0398837127937,17.4506376466207,11.3803419891384,16.0724070128254,16.5967573040984
-1008,Grasp,12m,Central,20.326002305875,23.4636295195394,14.141809614591,18.4775351144262,35.2341232458677,13.36756993882,19.4833976358236,8.80321927653585,17.166589516488,13.8323067514411,8.35730757174691,14.3563272260788,15.1631199119875,30.3759335576729,21.1043342057338,17.4555188739248,11.3584209870757,16.0687630992287,16.5677891676744
-1006,Grasp,12m,Central,20.3209718914006,23.3957802314551,14.0947218839821,18.5131631918645,35.1960724966569,13.325067569594,19.4592449298394,8.76251610128167,17.177630579067,13.8274140898461,8.32670242461398,14.3541989934024,15.164859371241,30.428850524227,21.1676931201153,17.4576071691635,11.3371230664571,16.0635649326647,16.5386276900918
-1004,Grasp,12m,Central,20.3173884113074,23.3288255141259,14.0528024504993,18.5482286019264,35.1634996047892,13.2825256067376,19.4365578556455,8.72195850552285,17.1917856818902,13.8215524103358,8.29676360089825,14.3519400407095,15.1671731583589,30.4816232652168,21.230023124158,17.4572360152107,11.3160687368691,16.0568507776638,16.5093704875658
-1002,Grasp,12m,Central,20.314863907579,23.262787390867,14.014723924762,18.5825189163678,35.1370057792891,13.2395600886067,19.4162203906301,8.68153996100001,17.2098305466119,13.8150093342712,8.26755892073465,14.3495010772144,15.1700198830311,30.5343058754046,21.291202135234,17.4541802290727,11.2947328349991,16.0490279153185,16.4801784138781
-1000,Grasp,12m,Central,20.3134220379261,23.197771419951,13.9794836551448,18.6158888422105,35.1170600976759,13.1961828099494,19.3976496806044,8.64114696973691,17.2326877885943,13.8079291981465,8.23912830413213,14.346971290421,15.1734222774213,30.5868589994132,21.3513482592587,17.4484607536584,11.2728117197598,16.0399690991122,16.451452208149
-998,Grasp,12m,Central,20.3138834500303,23.1338684281197,13.9463254886182,18.6483072753176,35.1034734790569,13.1524795012718,19.3795588945444,8.60093661923803,17.2609505966049,13.8001668664038,8.21158835897334,14.344588212073,15.1776407872974,30.6389970755576,21.4103084073379,17.4402769851076,11.2501198668722,16.0296033433974,16.4232889204042
-996,Grasp,12m,Central,20.3163519890353,23.0711648133021,13.9148569718793,18.6799531949522,35.0961318944668,13.1086433353501,19.361906032371,8.56171971290044,17.2947565042495,13.7918453144777,8.18494597462366,14.3421786857004,15.1829775224795,30.6902550474691,21.4678522593804,17.4298810272412,11.2265340891732,16.0182719630656,16.3956380350748
-994,Grasp,12m,Central,20.3205166172939,23.0099411925394,13.8848190147732,18.7113794997673,35.0951509212099,13.0651012474489,19.3454929880239,8.52340175767527,17.333636454335,13.7832242410243,8.15914999262769,14.3397099747631,15.1892919135533,30.7404981698727,21.5240120434867,17.4175020129104,11.2019372777973,16.005945590701,16.3688077273097
-992,Grasp,12m,Central,20.3268759230652,22.9506429732621,13.8562064312325,18.7430363889185,35.1010581140508,13.022457409277,19.3303965825391,8.48553691840168,17.3769662631079,13.7744830739341,8.13428395011276,14.3370762323514,15.196486052609,30.7896716135754,21.5789283214464,17.4033467548754,11.1761888413821,15.9925088546358,16.3430598444173
-990,Grasp,12m,Central,20.334497052264,22.893322390912,13.8293258027026,18.7744447821443,35.1140851256253,12.9806789060545,19.3153880065857,8.44829546104951,17.4242866444644,13.765610313318,8.11055330706655,14.3346407405465,15.2046570159843,30.837666938382,21.6327779917285,17.387641405593,11.1494691323239,15.9779101032729,16.318208273109
-988,Grasp,12m,Central,20.3428229396477,22.8394936182012,13.8036783523245,18.8053102478346,35.1348107376605,12.9396232951752,19.3001711783648,8.412240852207,17.4753468761682,13.7565514615434,8.08815288811894,14.3326889860581,15.2139463862285,30.8843406454948,21.6856462535434,17.3708424487945,11.1221754505253,15.9621132652541,16.2937696950318
-986,Grasp,12m,Central,20.3515007267855,22.7878032947485,13.7785057397267,18.8357292552797,35.1617415561555,12.8993994868887,19.2860830757048,8.37705997359592,17.5301572316767,13.7473413381916,8.06711812200523,14.3308112584008,15.2244650647462,30.9295286588236,21.7375342451208,17.3545287793644,11.0933972179251,15.9451341287671,16.2693369337298
-984,Grasp,12m,Central,20.3604896801021,22.7382583971792,13.7534509964284,18.8659739428187,35.1951294492265,12.860226163922,19.2718650049623,8.34282164043187,17.5887928787153,13.7381482981666,8.04745695764055,14.3290679826068,15.2362244982979,30.9731221163555,21.7883558826656,17.3388765572526,11.0631005062086,15.927086642455,16.2445409482917
-982,Grasp,12m,Central,20.3701130797025,22.6910364304174,13.7283177537502,18.8964799910907,35.2359903096149,12.8223844326209,19.257372930791,8.30956107020921,17.6507953395433,13.72911493813,8.02931541199601,14.3270688672406,15.249209810899,31.0152414502552,21.8380894652913,17.3231723092233,11.0313456100119,15.9081472514163,16.2191190443837
-980,Grasp,12m,Central,20.3800201108239,22.6465617579637,13.702979573741,18.9278330350293,35.2833381216955,12.7861983054911,19.2424018948495,8.2775729016702,17.7153971592824,13.7202931283196,8.01306123586523,14.3244967423612,15.2633054173198,31.0558349652112,21.8867425378244,17.3077618895708,10.998511252477,15.888375562104,16.1929368821261
-978,Grasp,12m,Central,20.390487164413,22.6047515759274,13.6773561182169,18.9596124832303,35.3368543746964,12.7520030628343,19.2266839981637,8.24669572526786,17.7818815131652,13.71173136773,7.99928062925679,14.3212362537708,15.2783098452848,31.0945404899704,21.9339295917594,17.2928569511863,10.9646278100727,15.8678207016388,16.1659747261698
-976,Grasp,12m,Central,20.4006800673617,22.5653059183461,13.6514139021131,18.9915464218356,35.3964243600129,12.7200905247653,19.2106428690143,8.21689876240986,17.8496582959181,13.7035484598699,7.98826273334408,14.3175263836242,15.2944467175652,31.1312696517408,21.9793644072446,17.2782952737609,10.9294952334827,15.8473648775987,16.1384807390252
-974,Grasp,12m,Central,20.4103861863185,22.5287452751415,13.6251621204042,19.0237390723711,35.4617680943462,12.6906587985233,19.1944647392823,8.18835752841644,17.9182456844639,13.6959407086813,7.98009177527804,14.313491841588,15.311841066163,31.1661150257304,22.0229235987476,17.2639744806419,10.8930559726536,15.8264965871252,16.1105937333892
-972,Grasp,12m,Central,20.419947442956,22.4944905537638,13.5987208967084,19.0554428692248,35.5334053361707,12.6638812803463,19.1769679002225,8.16126949547939,17.9872546358885,13.6892919770049,7.97684168495958,14.3088916240976,15.3298749377971,31.1994724029218,22.0645228765956,17.2499668917913,10.8551591783585,15.8048307488235,16.0821774906466
-970,Grasp,12m,Central,20.4294615145509,22.4622444728344,13.5731325706893,19.0861306611044,35.6112472931084,12.6399667165969,19.1579113489859,8.13542020981164,18.0563743617417,13.6834836364102,7.97785097919358,14.3037083639837,15.3482535718418,31.2311663944282,22.1041105771922,17.2364447602955,10.8156703793223,15.7824217880044,16.0535475274548
-968,Grasp,12m,Central,20.4386578976445,22.4320417508479,13.5508005474914,19.1154561979054,35.6945622889203,12.6192045162117,19.1371736426164,8.11060166469928,18.125349520625,13.6785598322055,7.9824971338811,14.2981987469099,15.3669429155461,31.261208998619,22.1416795452375,17.2236477091336,10.7745398050217,15.7594667385692,16.025830973077
-966,Grasp,12m,Central,20.4476749389886,22.4038677598018,13.5283884533892,19.1430723577515,35.7827400945273,12.6016264898357,19.1146622826609,8.08676305201025,18.1939877359455,13.6745146912168,7.99048874540583,14.2926600837452,15.3855771146824,31.2898223081319,22.1772726382729,17.2118703667143,10.731782832345,15.7362020709436,15.9987452930285
-964,Grasp,12m,Central,20.4560486520886,22.3776071645803,13.5055282614257,19.1686824742455,35.8750640434358,12.5877789210518,19.090310481843,8.06364024377326,18.2621600868387,13.6713864109868,8.0013100900039,14.2868484940829,15.4036555470442,31.3171309700738,22.2110054836614,17.2014432572224,10.6874566185334,15.7125662576323,15.9721462555712
-962,Grasp,12m,Central,20.4634240873678,22.3544023675458,13.4820623784961,19.1920812432506,35.970897349557,12.5784999101582,19.0640707708762,8.04134808968111,18.3298059612729,13.669286096802,8.01449180274817,14.2807770576062,15.4209239274614,31.3432209644063,22.2432398741573,17.1926945937049,10.6416496730228,15.6885007944116,15.9464149604014
-960,Grasp,12m,Central,20.4696508033468,22.3334892395666,13.4578737985533,19.2131423456781,36.0698118471235,12.5740995089249,19.0359179127757,8.01989004922272,18.3969467801727,13.6685269159085,8.0297835607454,14.2744963624522,15.4372766997163,31.3682950518051,22.2742175899502,17.1859433181475,10.5945099254434,15.6639681469362,15.9219098295313
-958,Grasp,12m,Central,20.4748874855116,22.314623651871,13.4329130867066,19.2317821719186,36.1718945492623,12.5737645830924,19.0058490313658,7.99893914564806,18.4637729643133,13.6689814091562,8.04729998919103,14.2679456724553,15.4528232260621,31.3928171889621,22.3038138417738,17.1815238842653,10.5464720360305,15.6389363574561,15.8991346789692
-956,Grasp,12m,Central,20.478925026857,22.2979348606264,13.4072165821907,19.2479254070067,36.276632863664,12.5776668320919,18.9738858771269,7.97869022854062,18.5312029857697,13.670426954364,8.06748446725909,14.2610605097079,15.4682129128374,31.4179552973503,22.3320657334024,17.1796546482176,10.4979520746559,15.613400221624,15.8782039837016
-954,Grasp,12m,Central,20.4815376893995,22.2835701956228,13.3808908435817,19.2615008579291,36.3832431301894,12.5857170115496,18.9400705850736,7.95893773351839,18.5990204337845,13.6726853932761,8.09013989810368,14.2538442525201,15.4829621899125,31.44360955827,22.3591237584008,17.1802465475766,10.4487082976728,15.5874086683828,15.8591083655138
-952,Grasp,12m,Central,20.4831136770107,22.2716280093802,13.354046679271,19.272467417537,36.4914315030464,12.5982276401653,18.9044647759182,7.93978343969466,18.6661626107607,13.6758553917343,8.11482332840341,14.2463110085677,15.4969553538644,31.4702685319995,22.3841851666522,17.183062961517,10.3991472986281,15.5610508624768,15.8420729448015
-950,Grasp,12m,Central,20.4830530958947,22.2619750823792,13.3267112001371,19.2808331833095,36.6009491515845,12.613361232473,18.8671492822054,7.92142009486457,18.7322642024502,13.6802460866226,8.14123002483331,14.238416745271,15.5100742198671,31.497765876983,22.4070355273519,17.1878864926279,10.3508721002716,15.534408282204,15.8274502754987
-948,Grasp,12m,Central,20.4811338378723,22.2543120630097,13.2988410097039,19.2867246017267,36.7121111720618,12.6309755570194,18.8282254460642,7.9038157137247,18.7970842177026,13.6857173987878,8.16910400835773,14.2301621638551,15.5218253190799,31.524738615106,22.4276420202742,17.1945525768783,10.3030725550966,15.5074634225011,15.8157157054279
-946,Grasp,12m,Central,20.4774625112538,22.2484554315159,13.2704331972668,19.2908549196861,36.824750161669,12.6515539826597,18.7878139998616,7.88718940463753,18.8604709602166,13.6921385527853,8.19813823068392,14.2216407905693,15.532169695327,31.5507129412293,22.4460067667095,17.2031506802856,10.2548319628904,15.4801090898431,15.8075235501535
-944,Grasp,12m,Central,20.4720842709359,22.244589179589,13.2420151963643,19.294171035678,36.9380148336286,12.6740409880835,18.7460579009516,7.87113110831043,18.9226665802198,13.6999499952549,8.22800929929395,14.2130126307879,15.5411392612963,31.5755932103839,22.4621569102734,17.2154401482275,10.2060801221465,15.4522926746793,15.8035030812911
-942,Grasp,12m,Central,20.46510247369,22.2436981769637,13.213801609263,19.2955753612467,37.0516535455813,12.699241727623,18.703121047569,7.85539910078361,18.9837963581879,13.7087521871707,8.25843914651352,14.2044678359412,15.5487827425851,31.5991881350625,22.4762379869734,17.2308317134049,10.156871642082,15.4240349155672,15.8030879460362
-940,Grasp,12m,Central,20.4561895238123,22.247078984473,13.1867039387873,19.2947823239854,37.1654148808421,12.7261406090002,18.6591927081963,7.83981842437723,19.0432926401225,13.7182141514036,8.28922954850178,14.1965285808142,15.5550757968595,31.621366590556,22.4888389501325,17.2477668911295,10.1073181126538,15.3954395391159,15.8056671844659
-938,Grasp,12m,Central,20.4452027791156,22.2534211707146,13.1603409188127,19.2927735906827,37.2791104749746,12.7546243370073,18.6144740375687,7.82428677632031,19.1010691010322,13.7279313781341,8.32032638825842,14.1887684675303,15.559942862371,31.6421367874702,22.4995161147934,17.2661273607552,10.0579956269118,15.3667487663017,15.8108743621778
-936,Grasp,12m,Central,20.432317583438,22.2620280610897,13.1346868572237,19.2904277644916,37.3926330184016,12.7846979259843,18.5691451694044,7.8087547595601,19.1571607020964,13.7374850411417,8.35208742798061,14.1814227825687,15.5633438097266,31.6615623363366,22.5081556510641,17.2858455451096,10.009085621372,15.3381826884247,15.818403058464
-934,Grasp,12m,Central,20.4180342548861,22.2727262256188,13.1106729601157,19.2860874113189,37.5059038130045,12.8164991804379,18.5233542775882,7.79321547416215,19.2115267557417,13.746578103877,8.38487033443482,14.1747593472693,15.5653404285147,31.679636103094,22.5146535802383,17.306852985455,9.96005316373232,15.3097719691763,15.8293350014971
-932,Grasp,12m,Central,20.4020510711733,22.2856010076734,13.0877297361621,19.2796706607664,37.618867486893,12.8510386875311,18.4772638680333,7.77788533068769,19.2640204060835,13.7550095494271,8.4180055855945,14.1685111012373,15.5661655055042,31.6963015854229,22.5188107370538,17.3291436512583,9.91087607042398,15.2816950800413,15.8434770256324
-930,Grasp,12m,Central,20.3842344165705,22.3007032600529,13.0653449315221,19.2713017693379,37.731651781566,12.888102895832,18.4310662430929,7.76308548350211,19.3145327083228,13.762627744289,8.45109733274513,14.162445515831,15.5657519972587,31.711478305905,22.5204184919665,17.3527410128474,9.86156249457398,15.253974339501,15.8604139051653
-928,Grasp,12m,Central,20.3648288862296,22.3190315273162,13.0432907929595,19.2612561895149,37.8442779223399,12.9277992687564,18.3849989086088,7.74842503028894,19.3630185757172,13.7693574393999,8.48404084756092,14.1564359850668,15.5639003303961,31.7250728264384,22.5193571160151,17.3778381898774,9.81218582742924,15.2265748420075,15.8800486687205
-926,Grasp,12m,Central,20.344412838985,22.3405398559942,13.0216687147623,19.2494145663496,37.9569211054436,12.9696394011921,18.3393314502194,7.73413087084001,19.4096034266605,13.7751852196059,8.5168225183943,14.1507198987876,15.5605986973056,31.7369642929255,22.5155859288437,17.4053289617273,9.76331109700799,15.1996626577309,15.9019037333949
-924,Grasp,12m,Central,20.3246586941468,22.3644297694743,13.0011422600696,19.2354495558723,38.0688684624053,13.0137022908183,18.2944462458771,7.72037273313229,19.4551397681926,13.780021544867,8.54950957662444,14.1454147170146,15.5558777719891,31.7471718733662,22.50902965794,17.4360890988636,9.71528182478787,15.1740020357929,15.9256830039098
-922,Grasp,12m,Central,20.30519033445,22.3905385127993,12.9825715949882,19.2192908779733,38.1800050382171,13.0602979644731,18.2514822373114,7.70711481638696,19.4994692737751,13.7837476643089,8.58230101377628,14.1405802285546,15.5497883178425,31.7561536696876,22.4995690794083,17.4688398248489,9.6679082691319,15.1496440025428,15.9512443159514
-920,Grasp,12m,Central,20.2847076891306,22.4192909168448,12.9664608418822,19.2010563007006,38.2903878570522,13.1091259287512,18.2111199195926,7.69446782527911,19.5418164192058,13.7862728441292,8.61554229049043,14.1359180039795,15.5424928034386,31.7641503696699,22.4871605860348,17.5025472617926,9.62160208318548,15.1268350851225,15.9784996111988
-918,Grasp,12m,Central,20.2632204460411,22.4502421510136,12.9514008039235,19.1809009858878,38.4001620547535,13.1595621743665,18.1718586576153,7.68255695469442,19.5820417453641,13.7873732175389,8.64945609329134,14.1314198683797,15.5342721857231,31.7706102049859,22.4718238581374,17.5365256725832,9.57672196389127,15.105523827278,16.0072649432356
-916,Grasp,12m,Central,20.2411273137119,22.4827789603122,12.9364495918531,19.158751988161,38.5095491059476,13.2114955973445,18.1331321360382,7.67143425502091,19.6201586811012,13.7868941248874,8.68361424667647,14.1272984967809,15.5253267717246,31.7754174381272,22.4535972513422,17.570265833928,9.53359342549491,15.0856839818122,16.0374681123023
-914,Grasp,12m,Central,20.218498405635,22.5167508826185,12.9214882700473,19.1343073387444,38.6186771629049,13.2647838834624,18.0946786274289,7.66114199238106,19.6563456282687,13.7847777481438,8.71729497566528,14.1230434383052,15.5157706291789,31.7783532236937,22.4324561851126,17.6033746481131,9.49175349777332,15.0673010910715,16.0692158011971
-912,Grasp,12m,Central,20.1956324538076,22.5523572219133,12.9065252071379,19.1073219489667,38.7274125388594,13.3190224992514,18.0562663575031,7.65164765756618,19.6909279532584,13.7808165387493,8.75020372126644,14.118657465988,15.5056334095871,31.779574610805,22.4082838712592,17.6355984247939,9.45089581229183,15.0502983647791,16.1023656655962
-910,Grasp,12m,Central,20.172810104766,22.5901114491235,12.8916755190184,19.0777045722411,38.8354634441429,13.3737464909807,18.0176951096753,7.64282201690624,19.7239284503013,13.7748398584941,8.7821961692738,14.1139892947417,15.4948184878923,31.7790542536328,22.380936393465,17.6669153067874,9.41104091321989,15.0347295018138,16.1363727670448
-908,Grasp,12m,Central,20.1498990401452,22.6306908313108,12.8771849832299,19.045485175702,38.9426904103902,13.4286251154933,17.9788036315022,7.63460565357237,19.7552228757189,13.7667741263676,8.81320027255681,14.1088379225392,15.4837310988138,31.776413478047,22.3502973957977,17.6975495436084,9.37238106717183,15.0207601658544,16.1708599727341
-906,Grasp,12m,Central,20.126910913778,22.6744905056408,12.863415099499,19.0107783843232,39.049136227584,13.48344655606,17.9394654004467,7.62706018201966,19.7845877343235,13.7565874438957,8.84319611451529,14.1030954898254,15.472553687433,31.7714786159359,22.3162972127509,17.7273546754056,9.33519363136865,15.0086162201115,16.2055538842657
-904,Grasp,12m,Central,20.1041674297978,22.7214915251278,12.8506304278614,18.973774079378,39.1541652299541,13.5380945478082,17.8996029350829,7.62031066562324,19.812017362336,13.7442786017222,8.872224538304,14.0967559015911,15.4605076653758,31.7642443505661,22.2789304930422,17.7557509333641,9.29970727162648,14.9981154446552,16.2399495532211
-902,Grasp,12m,Central,20.0821126970388,22.7716277750699,12.8388257966585,18.9350441696582,39.2573800491212,13.5924931879264,17.859174742431,7.61437108370615,19.8376402806303,13.729853061101,8.90041350118079,14.0898449661663,15.4476332594264,31.7547545357099,22.2382815928511,17.7823949864796,9.26598206229701,14.989122954438,16.2737142015614
-900,Grasp,12m,Central,20.0610210894227,22.8247710032255,12.8279777274448,18.8968884029519,39.3586331424638,13.6465445433235,17.8181877882207,7.6092949287856,19.8614372043239,13.7133166347849,8.92800872150494,14.0824076851927,15.4340689968356,31.7430496383229,22.1944921812367,17.8072574167799,9.23424608388131,14.9818823208706,16.3065292074599
-898,Grasp,12m,Central,20.0409019165493,22.8808472820266,12.8182423952192,18.8573247878749,39.457876339667,13.7004822078015,17.7766948938532,7.6054054483503,19.8832814208748,13.6946436665557,8.95507134855804,14.0745559424677,15.4199149792217,31.7291241910189,22.1474007822316,17.8304725112833,9.20484170341165,14.976713797776,16.3380707037759
-896,Grasp,12m,Central,20.0210577979792,22.9398987380703,12.8102843825653,18.8164861343438,39.5552005020778,13.7541853461968,17.7348125983627,7.60267785377352,19.9031496160694,13.6738141934028,8.98125781732943,14.0662618034523,15.4052098989022,31.7130069335682,22.0970313046822,17.8522829368567,9.17744701223874,14.973729809269,16.3681926682059
-894,Grasp,12m,Central,20.0011486237881,23.0020300376852,12.8049176736073,18.7746928813474,39.6509144321285,13.8071010949769,17.6927023157621,7.60078419606973,19.9210588046708,13.6508334614798,9.00621055976258,14.0573975552159,15.3900274306659,31.6947478176811,22.0436530719638,17.8730217618765,9.15198953323496,14.9729844612617,16.3966166924816
-892,Grasp,12m,Central,19.9810155321605,23.0674333664649,12.8021633931306,18.7323845555235,39.7451528576583,13.8590537666032,17.6505682411474,7.59987535086309,19.9370575995237,13.6257618312931,9.02969470234165,14.0479680711333,15.3744381574522,31.6744425499749,21.9872530174506,17.8918400139074,9.12841360019068,14.9748230965347,16.4232616017068
-890,Grasp,12m,Central,19.9604311298723,23.1361466354945,12.8018749214069,18.6900940707179,39.8376290174836,13.9098779238229,17.6086070549333,7.6001557182044,19.9512090685569,13.5987869595727,9.0515635396931,14.0380721280978,15.3584234819187,31.652186430775,21.927860124057,17.9084211207012,9.10736703196371,14.9785056309591,16.4479697198189
-888,Grasp,12m,Central,19.9393538282869,23.2079499699477,12.8034383831277,18.6483587250795,39.9282441479281,13.9594346939779,17.5669846752139,7.60195595756714,19.9636014316959,13.5702466122966,9.07174412932767,14.0277780895874,15.3419426540744,31.6280608881407,21.8656822055235,17.921785161988,9.08877402785478,14.9836131948916,16.4703791362105
-886,Grasp,12m,Central,19.9181421267156,23.282630772553,12.8067277778173,18.607591409177,40.0169733187282,14.0076365087101,17.5258861460741,7.60523649540364,19.9743625529146,13.5399775138828,9.09021411903372,14.0170549370489,15.324995350848,31.6021659047818,21.8006724190158,17.9316583789327,9.07291272728631,14.989953244256,16.4902214098637
-884,Grasp,12m,Central,19.8964756157261,23.3601582144026,12.8120782553582,18.5679588186458,40.1038796170827,14.0544703311767,17.4856252614399,7.60986738741001,19.9836051558762,13.5079506018113,9.10695893594889,14.0059226828013,15.3078832960305,31.5746481013112,21.7329401428612,17.9377361106066,9.06002887220581,14.9975627792912,16.5073416012463
-882,Grasp,12m,Central,19.8741565063108,23.4408290438131,12.8215003343545,18.5291603284757,40.1891933280893,14.1000218926294,17.446372242768,7.61568037697607,19.9913866918117,13.4742303158657,9.12196388989081,13.9945698389682,15.2907644941606,31.5457617592083,21.6626769135374,17.9397483284148,9.04988898879992,15.0060778780862,16.5216479884938
-880,Grasp,12m,Central,19.8513552227062,23.5251366096535,12.8336354945939,18.4906924855153,40.273085614233,14.144593573071,17.4081249619668,7.62264345843321,19.9977693488613,13.4389065259148,9.13525238544388,13.983106139479,15.2735490043683,31.5158555065628,21.5900796915768,17.9375009893767,9.04236176148642,15.0152476842292,16.5331004959527
-878,Grasp,12m,Central,19.8285825230678,23.6131696004803,12.8475535612866,18.4523120382389,40.3553466989296,14.1882297920497,17.3709725407896,7.63088690721377,20.0028374281923,13.4021171464965,9.14744499934969,13.9715811300986,15.2565089560469,31.4849582148736,21.5155081290309,17.930851186232,9.0373437085902,15.0250429049792,16.5416956829148
-876,Grasp,12m,Central,19.8065499310989,23.7060803433345,12.8631108509631,18.4153895592439,40.4357602131526,14.2306579688219,17.3348439932369,7.64047356229371,20.0067204134348,13.3642545422206,9.15853118010527,13.9597677766952,15.2394099522887,31.4530079825521,21.4392106611653,17.9197127506274,9.03499269721037,15.0353536821756,16.547486866866
-874,Grasp,12m,Central,19.785338884978,23.8030825873413,12.8799589270118,18.3787577730529,40.5141612875719,14.271632806156,17.2996420942698,7.65128993346369,20.0095766170866,13.3255108137537,9.16807850698003,13.947591828598,15.2222072867511,31.4200369764289,21.3610349776281,17.9040518435026,9.03587404678778,15.0459568004399,16.5506127427269
-872,Grasp,12m,Central,19.7649339686227,23.9035440216474,12.8984445185698,18.3420171293411,40.5904774016833,14.3109684697325,17.2654568614001,7.66312945922287,20.011627092177,13.2857983531041,9.17589940401369,13.9351105164669,15.2049174062171,31.3861456852111,21.2810988086378,17.883959080547,9.03966294383487,15.0566422849419,16.5514456611249
-870,Grasp,12m,Central,19.7451572186828,24.006587497318,12.9180115755182,18.3047961026804,40.6647156081921,14.3485771315681,17.2324917373099,7.6758356237988,20.0131402778849,13.2453861483558,9.18169932482222,13.9222551418865,15.1876066498979,31.3514967583838,21.1997655601877,17.8613952151344,9.04571207650675,15.0672454263244,16.550564363125
-868,Grasp,12m,Central,19.7266452278475,24.1118431494417,12.9382479156498,18.267013355662,40.7368889684627,14.3841308488678,17.2009603341015,7.68935171391617,20.014363666168,13.2046962820129,9.18610360110158,13.9090952852971,15.1704114141147,31.3163388421001,21.1179356146679,17.8356904833533,9.05377741338106,15.0776494897976,16.5484444420979
-866,Grasp,12m,Central,19.709379072836,24.2189951914211,12.9591191508533,18.2286741664174,40.8069177944904,14.4171710449468,17.1710311747758,7.70368584685233,20.0154207952539,13.1639159348746,9.18958290973162,13.8957446335131,15.1535724933595,31.2810391853553,21.0356281403548,17.8059035957834,9.06506077406597,15.0877510989586,16.5448882330952
-864,Grasp,12m,Central,19.6935625642938,24.3274678954604,12.980711747805,18.1898358186585,40.8747099518775,14.4474502816978,17.1428613429731,7.71880973915318,20.0163198101845,13.1230757236959,9.19094715152352,13.8825483607379,15.1374311874023,31.2459815200212,20.9523100176634,17.7722972527084,9.07929541536569,15.0974430054036,16.539713168442
-862,Grasp,12m,Central,19.6795755784322,24.4369980708858,13.0030719954293,18.1506155706883,40.9402292798682,14.47482538757,17.1167069470625,7.73470185414703,20.0170660224759,13.0830172400987,9.19011258272921,13.8696214979244,15.122160084411,31.2122681847304,20.8680324432609,17.7351258387967,9.0957388383265,15.1066018182784,16.5336740870875
-860,Grasp,12m,Central,19.6680556129435,24.5474947129587,13.0264517036908,18.111412163441,41.0035111906161,14.4991998897755,17.0941838634401,7.75133401075522,20.0177784275653,13.043900189166,9.18710951935262,13.8566802792307,15.1074743986125,31.1793370025523,20.7831060493549,17.6944200287509,9.1144976989622,15.1150889382087,16.526798899936
-858,Grasp,12m,Central,19.658569440821,24.6591770962271,13.0507979426581,18.0725721081453,41.0646574715215,14.5205131711484,17.0752094846725,7.76880371847038,20.0188299448952,13.0052075343672,9.18202351229046,13.843615145352,15.0934717070591,31.1471067449575,20.69796011608,17.650197816256,9.13519596933426,15.1227891888594,16.5194942193314
-856,Grasp,12m,Central,19.6519549302254,24.7721007331045,13.0754395188328,18.0339907671417,41.1237944833605,14.5388753108114,17.0590937102924,7.7873668403721,20.0206198627026,12.9669525632813,9.17498873594776,13.8303414860973,15.0801161398954,31.1160770968566,20.6130594937957,17.6025876205146,9.15770349710854,15.1296463247075,16.5113522515446
-854,Grasp,12m,Central,19.6474768180559,24.8860371894062,13.0999859549249,17.9962053509024,41.181033078254,14.5555030122119,17.0456867109426,7.80657929270151,20.0235519425099,12.929285380923,9.1661639804986,13.8166557504763,15.0673722145929,31.0863804610556,20.5295653002648,17.5518720168875,9.18232532187729,15.135647777925,16.5022557210108
-852,Grasp,12m,Central,19.6443423448224,25.0009172200561,13.1242187721492,17.9603895817305,41.2365638394067,14.5691503623349,17.0349545619361,7.82633302538107,20.0281489298319,12.8925030972831,9.15568109314362,13.8023124226737,15.0551990538977,31.0578830654124,20.4485926613663,17.4986706534471,9.20934302993777,15.1406770647254,16.4924386754128
-850,Grasp,12m,Central,19.6424670693815,25.1172302662326,13.1480011222187,17.9261381113712,41.2907760256071,14.5796066038662,17.0270643668149,7.84652303778046,20.0342295895861,12.857306413698,9.14362252674059,13.7871889620662,15.0436479832938,31.0305315203706,20.3687934326301,17.4438860088314,9.23921189231246,15.1445563983999,16.4832199473507
-848,Grasp,12m,Central,19.6424527016335,25.2345933952027,13.1712678284952,17.8939298838019,41.3435348495928,14.5868717871822,17.0225637632991,7.86705742967199,20.0414132220183,12.823641201522,9.13006687455919,13.771686431321,15.0329547630759,31.0043464221374,20.2908653663658,17.387417139325,9.27257984550346,15.1471961362406,16.4749586795584
-846,Grasp,12m,Central,19.643742378577,25.352347155772,13.1940118947048,17.8650753267502,41.3949582332824,14.5909684885081,17.0216204757029,7.88787774362313,20.0495715635316,12.7909262833734,9.11514751591053,13.7558644260107,15.0232530152802,30.9794695084002,20.2149799097046,17.3288611337512,9.30895448566457,15.1486039774642,16.4666770274941
-844,Grasp,12m,Central,19.6463334227547,25.4704627458436,13.2162848739317,17.8393974975243,41.4457476419465,14.5919482936787,17.0241225031942,7.90900177834737,20.0587703495833,12.7589640454464,9.09910117594041,13.7394536183526,15.0145119797452,30.9560389785331,20.1413098220528,17.2681665719044,9.34822849545919,15.1489196205464,16.4585231489568
-842,Grasp,12m,Central,19.6501948218885,25.5888955607982,13.2381473275768,17.8164141491222,41.4962134510101,14.5898701250471,17.0306963693684,7.93052728967133,20.0691872685876,12.7277004968249,9.08231879760197,13.7224474554601,15.0067686751602,30.9340909173176,20.0702160993798,17.2055312409479,9.39072113445661,15.1486491949109,16.4507857408063
-840,Grasp,12m,Central,19.655278690854,25.7067665354653,13.2596008767677,17.796093984825,41.5456217557275,14.5848001567608,17.0420622180402,7.95241729606946,20.0810764947729,12.69716140767,9.06522453461466,13.7047086104231,15.0000263340929,30.9137617680758,20.0016181080062,17.1412964052726,9.43634852561971,15.1476569124873,16.4439012417641
-838,Grasp,12m,Central,19.6615760815531,25.8237339308011,13.2805878302025,17.778725923022,41.5940718019026,14.5768311699866,17.0586390041313,7.97476896408555,20.094684975653,12.6674213328389,9.0479640116177,13.6862117414399,14.9943111613133,30.8954837990785,19.9354246757994,17.0756951562587,9.48472309709251,15.1454260591044,16.4384071523665
-836,Grasp,12m,Central,19.6689405550485,25.9396875471435,13.3010766295391,17.7647983008372,41.6416356158258,14.5660776247986,17.0803736080499,7.9983020773085,20.1100632449652,12.6385593845411,9.0313688096594,13.6670324582318,14.9895977054576,30.8789286499176,19.8716531423742,17.0088734750228,9.53572697015362,15.1417653288922,16.4349047145788
-834,Grasp,12m,Central,19.6774327675999,26.0542418927228,13.3210744612785,17.7546559334671,41.6880866675555,14.5526854376888,17.106947221579,8.02226953952955,20.1271694929932,12.6106471296758,9.01547917777994,13.6475132714749,14.9856546766084,30.864174588106,19.8102906743489,16.9414534815301,9.58955819592686,15.1365817094014,16.4344111286936
-832,Grasp,12m,Central,19.6872733694678,26.1670402760162,13.3404595275796,17.748192454585,41.7334262039248,14.5368337606992,17.1387615716377,8.04643217036784,20.146084725724,12.5837730772487,9.00001471253074,13.6280315537385,14.9825190989089,30.8512663110219,19.7517128933759,16.874696385474,9.64707369997141,15.1300353177651,16.4379543689782
-830,Grasp,12m,Central,19.6988756790649,26.2778949436327,13.359091171702,17.7453146987422,41.7781305865745,14.5187337391129,17.1769049339885,8.07082936698239,20.1671937722079,12.558155146452,8.98547499858968,13.6080611683072,14.9807066981854,30.8402567595492,19.695591417421,16.8081550265742,9.70895237839457,15.1220812384382,16.4448658820969
-828,Grasp,12m,Central,19.7128014906133,26.3867316290306,13.3767600464449,17.7461234223402,41.8218715486389,14.4986201454485,17.2201525428943,8.09547029020224,20.1911620514708,12.5341023141605,8.97184674356129,13.587604924586,14.9798505675859,30.8315267579392,19.6418190052059,16.741179203825,9.77436064666173,15.1125842893176,16.4543019665762
-826,Grasp,12m,Central,19.7289698199262,26.4935444969773,13.3931698398625,17.750675348864,41.8645822326691,14.4767166065536,17.2672352173713,8.1202302601548,20.2178934743041,12.5116193584412,8.95810734617385,13.5665957846904,14.9800013304658,30.8247954341458,19.5907863853767,16.6738018079467,9.84384080564173,15.1019030747576,16.4660365079115
-824,Grasp,12m,Central,19.7464059760486,26.5983500362808,13.4081289381788,17.758653759917,41.9065832615526,14.4532404532009,17.3174000930086,8.14512500118334,20.2470449840813,12.4907868040224,8.94423121391962,13.5449575223899,14.9812681601284,30.8199634602711,19.543411460054,16.6061126989645,9.91713541916116,15.0899682345254,16.4799971681786
-822,Grasp,12m,Central,19.7649312219127,26.701110540241,13.4215239629963,17.7702844027118,41.9473787552866,14.4284187064899,17.3705350090214,8.17002792848569,20.2786728917165,12.4717767901274,8.93027769141394,13.5226435816988,14.9831487769807,30.8172220315789,19.4996686426348,16.5379899202934,9.99454038151124,15.0765616849129,16.496226644544
-820,Grasp,12m,Central,19.7846550788187,26.8017205866709,13.4333181495926,17.7849429040513,41.9867835582233,14.4024778881774,17.4288123676904,8.1952012804867,20.3129911458683,12.4547645828812,8.91637533721947,13.4996541881475,14.9856903989519,30.8170932053215,19.460333607945,16.4692574231157,10.0766033258856,15.0617129565599,16.5149509068357
-818,Grasp,12m,Central,19.8056751259143,26.8999539874604,13.4435606090234,17.8024955325794,42.0247833747976,14.3755942720396,17.4908798487378,8.22069664788423,20.3502028166295,12.4400260579219,8.90271247318686,13.476116754157,14.9881100118429,30.818992645208,19.4258148892223,16.3997608527581,10.1621303234215,15.0455958986779,16.5367692766127
-816,Grasp,12m,Central,19.8279574289059,26.9955629570909,13.4526612549293,17.8229784061266,42.0614452303275,14.3479511977838,17.554184638909,8.24568583768742,20.3903856780234,12.4275417664994,8.88951177348266,13.4524103094132,14.9900315053465,30.8221789652937,19.3955385310742,16.3293992479252,10.2503900341528,15.0285746532299,16.5622514253761
-814,Grasp,12m,Central,19.8514507106172,27.0883793249757,13.4612876568775,17.8460559779625,42.0969456764009,14.3197412937394,17.6180329419583,8.2700207495634,20.433319206896,12.4176548769297,8.8769848880228,13.4297228816769,14.9912838445523,30.8262089013363,19.3689535544189,16.2581533748144,10.341581125498,15.0108416965125,16.590762091951
-812,Grasp,12m,Central,19.8760377898708,27.1783366054842,13.4685447288667,17.8713276480516,42.1322552948388,14.2911331412959,17.6819946624928,8.29361717774302,20.4789535615855,12.410155433864,8.86535744066466,13.4074858583077,14.9917334469065,30.8308502394165,19.345379788153,16.1861158414204,10.4349803997078,14.9924832964708,16.6217823091645
