Time,Condition,Age,ChannelPair,connect_overtime_LA_EEG_12_P04_CTS_MTH_chanpair_12m.mat,connect_overtime_LA_EEG_12_P05_CTS_MTH_chanpair_12m.mat,connect_overtime_LA_EEG_12_P06_CTS_MTH_chanpair_12m.mat,connect_overtime_LA_EEG_12_P07_CTS_MTH_chanpair_12m.mat,connect_overtime_LA_EEG_12_P08_CTS_MTH_chanpair_12m.mat,connect_overtime_LA_EEG_12_P10_CTS_MTH_chanpair_12m.mat,connect_overtime_LA_EEG_12_P11_CTS_MTH_chanpair_12m.mat,connect_overtime_LA_EEG_12_P16_CTS_MTH_chanpair_12m.mat,connect_overtime_LA_EEG_12_P17_CTS_MTH_chanpair_12m.mat,connect_overtime_LA_EEG_12_P19_CTS_MTH_chanpair_12m.mat,connect_overtime_LA_EEG_12_P20_CTS_MTH_chanpair_12m.mat,connect_overtime_LA_EEG_12_P21_CTS_MTH_chanpair_12m.mat,connect_overtime_LA_EEG_12_P22_CTS_MTH_chanpair_12m.mat,connect_overtime_LA_EEG_12_P23_CTS_MTH_chanpair_12m.mat,connect_overtime_LA_EEG_12_P24_CTS_MTH_chanpair_12m.mat,connect_overtime_LA_EEG_12_P25_CTS_MTH_chanpair_12m.mat,connect_overtime_LA_EEG_12_P26_CTS_MTH_chanpair_12m.mat,connect_overtime_LA_EEG_12_P27_CTS_MTH_chanpair_12m.mat,connect_overtime_LA_EEG_12_P28_CTS_MTH_chanpair_12m.mat
-1000,cane,12m,PO,0.612092023177393,0.512393290391959,0.527666803785337,0.543755151628779,0.472222238074355,0.543025325134307,0.539008227737261,0.51031155521894,0.62134643516411,0.517774731946522,0.565215393232636,0.471383115810853,0.489937241307598,0.449209379691891,0.539889463180618,0.434998952756769,0.523913138561931,0.374700165199925,0.480301824411578
-990,cane,12m,PO,0.613555091981326,0.513867729691501,0.523913674666322,0.541382460650553,0.472881643095811,0.542798978648444,0.535122037093813,0.51304072727934,0.624527931409803,0.51850344771524,0.56367869983065,0.473703753613566,0.489949983826182,0.45124315033635,0.540866329301697,0.440324820222997,0.520157581992521,0.371239535303265,0.481356357213344
-980,cane,12m,PO,0.615038290366388,0.515109992725924,0.519512801852163,0.539067498108614,0.473652544557766,0.542552101732096,0.530753553081728,0.515221434613645,0.626727781427413,0.519166664540634,0.562417045712536,0.47627193762682,0.490307352533031,0.453178017757391,0.542045924491346,0.445676149520766,0.516236428307603,0.368486309112044,0.482543445755218
-970,cane,12m,PO,0.616156126759575,0.516000984982331,0.514730171065196,0.537072111537761,0.474782510765259,0.54219046100848,0.527053377669677,0.516604885173455,0.627877560595747,0.519715623082062,0.561368603495823,0.47916482686602,0.49085217052838,0.454820225614327,0.54368929421694,0.450762904988547,0.512236208629213,0.366377854294095,0.483662426713361
-960,cane,12m,PO,0.616453318668081,0.516668818445471,0.509778289492758,0.535427931950447,0.476453408915892,0.541391010915645,0.524229689403993,0.517062842011458,0.627955876478236,0.520180353042153,0.560097735655997,0.482498453091905,0.491887624464684,0.456388616273606,0.545922397172016,0.454560592483467,0.508273953047276,0.364768229163144,0.485004322935689
-950,cane,12m,PO,0.616145071464517,0.517032490457441,0.504710739966121,0.534075841213917,0.478120613209347,0.540221986439758,0.522029737504087,0.516781273513396,0.627515050566148,0.520673148366092,0.558829663364111,0.486311176759352,0.493234686101687,0.457921082177229,0.54856816489111,0.45743962884455,0.504311173230195,0.363744072823585,0.486444043729114
-940,cane,12m,PO,0.615345039259586,0.517128056065744,0.49938216155916,0.533544038757286,0.480672970802892,0.538760652362355,0.520006960888663,0.515588520548512,0.626701541915406,0.521146206941794,0.557631789707321,0.490538076589859,0.494612874303629,0.459222036096694,0.551600466336107,0.459293467031318,0.499326323277989,0.363440004418061,0.487861071892203
-930,cane,12m,PO,0.614077414828582,0.51710974160513,0.494000411820134,0.534340275976269,0.483859825524302,0.536898036113766,0.518568656925179,0.513591108190771,0.625354305559401,0.521317014507365,0.556599373957351,0.4952023406277,0.496159600148652,0.460531177623963,0.555072914449256,0.460125340543867,0.493957884398145,0.364151647979915,0.489768365465934
-920,cane,12m,PO,0.612078791267143,0.517155653990901,0.489243458962606,0.536316074540888,0.487694429876652,0.534521601204288,0.517997663338091,0.511060127885579,0.623414862085087,0.521258272175343,0.556381370503358,0.500065981410203,0.49748430848637,0.46179538263091,0.558724221961753,0.459672496883933,0.488609314420864,0.365568208572422,0.492281765308738
-910,cane,12m,PO,0.609641268724707,0.517405596111815,0.486075646029793,0.539047655900176,0.491720039430203,0.531451365847471,0.517910576948151,0.508598289411154,0.620930012120088,0.521385536281174,0.556525032513081,0.504934247600493,0.498983011231023,0.462965175722727,0.562326409896143,0.45901312566287,0.483205109012327,0.367099385459194,0.495455836024222
-900,cane,12m,PO,0.60701357697328,0.517969286453892,0.484105861226692,0.5427416193306,0.495934900700436,0.527666699808386,0.518596195916935,0.506298588341971,0.618015325125873,0.521807782724309,0.556835120623943,0.50995793868862,0.500520668866437,0.464156644362184,0.56567171049699,0.457538906714303,0.478055624596666,0.368585166374874,0.499136238258531
-890,cane,12m,PO,0.604360672118435,0.519157527064822,0.483130385464965,0.547165723411597,0.500360254108318,0.523185346850863,0.520149881465307,0.504124545511814,0.615150494545665,0.522243321510807,0.5571908769549,0.515086236703067,0.501937544013085,0.465248181958364,0.568743482509201,0.455512857786803,0.473487194297901,0.370013761760473,0.503820569020689
-880,cane,12m,PO,0.601648600580823,0.521153258826959,0.482817400289303,0.551243062744524,0.504614409887112,0.518154475066542,0.522365655193226,0.501981409899888,0.61267104608002,0.522889219716834,0.557444067835284,0.520213663692247,0.503246369976031,0.466629264157137,0.571488451738802,0.453442882823266,0.469342779737732,0.371787906211975,0.509061874424925
-870,cane,12m,PO,0.598771971783046,0.523620316264841,0.482953265812179,0.555078123466426,0.507895391967802,0.513175214829735,0.526021368945206,0.499527173883307,0.610446827251781,0.523610199806386,0.557419921569055,0.52524846270607,0.504829227601978,0.468236226244754,0.573757017289357,0.4515744179203,0.4658976790199,0.373607293243163,0.514326793999609
-860,cane,12m,PO,0.595656300939044,0.525920415422257,0.483629351737779,0.559045699125787,0.510757088991046,0.507894928508505,0.530724244036867,0.496894068129895,0.60837977492054,0.524624304453124,0.556819526895012,0.530291031469466,0.50653079360869,0.469962963876843,0.575724171975294,0.450153619373108,0.463109915814722,0.375330233207491,0.519752496248683
-850,cane,12m,PO,0.592531749987341,0.528341727182179,0.485029564623947,0.562970730422788,0.513444028254331,0.502378237316907,0.536225884121502,0.493897367689864,0.606149775050287,0.525761979139496,0.555949958387822,0.535233522378316,0.507933249761565,0.47158880749622,0.576904098115275,0.449302048054586,0.460724319470954,0.377201360386604,0.525123616140958
-840,cane,12m,PO,0.589469551939267,0.530458312031656,0.487280728865503,0.566764428957641,0.516135067554081,0.496362825550749,0.542622472937327,0.490870618581997,0.603292797137543,0.527431618091626,0.554758923010215,0.539810166228901,0.509517597747361,0.473599260719865,0.577912608487094,0.448919870045888,0.458363712242069,0.379008489976465,0.530468505238579
-830,cane,12m,PO,0.586684685621611,0.531801434527876,0.489605357009311,0.570244563273005,0.519187357666179,0.489251857225325,0.548794335397309,0.488039112776258,0.600844146594965,0.52926873587559,0.553932111855828,0.544203537108808,0.51157273353231,0.476178453165665,0.578902283938368,0.449048569556174,0.455677769370041,0.380783949325042,0.53582338085244
-820,cane,12m,PO,0.584909449463086,0.532215610736721,0.491931142689738,0.57293601157725,0.522365080138054,0.48157474465591,0.553767984043942,0.48503253353068,0.599576650568,0.531124210359489,0.553412018419083,0.548236821364997,0.513728092143829,0.478724603733165,0.580015517443079,0.449945210016187,0.452536167859813,0.382548882304152,0.540984243721886
-810,cane,12m,PO,0.583872977381223,0.532099252051347,0.494440624102825,0.575660617007332,0.525585708356798,0.47387073483929,0.558165766121507,0.482113586855978,0.598457310576634,0.53242786973607,0.553315727670247,0.551489780166731,0.516516583892391,0.480841208026674,0.581493267489912,0.451930307791547,0.449270383878591,0.384228761314089,0.545773151496882
-800,cane,12m,PO,0.583301371588922,0.531161223520894,0.49653745331588,0.578781152448803,0.528786860406525,0.466051014052196,0.562273222087012,0.479598446159886,0.597092330764048,0.533384050823023,0.553204479714096,0.554203716693867,0.520650891829369,0.482391930705276,0.58306089249907,0.454290611647932,0.445882240176066,0.385818613903575,0.549862410377043
-790,cane,12m,PO,0.583270471483186,0.529833040903089,0.497532886340974,0.582254175376422,0.531148791572315,0.458210694676725,0.565497607287157,0.477401387147839,0.595410286799917,0.534159834446628,0.552845375670168,0.556557207865798,0.524892470763329,0.48364317312854,0.584414422424895,0.456685081130319,0.441489537185524,0.387706626967735,0.553145555404375
-780,cane,12m,PO,0.583887258031229,0.528380450476245,0.497324215844066,0.586021063251732,0.532600663814979,0.4503628545045,0.5680179650499,0.475368683221807,0.593707706421582,0.535205554713123,0.552157804732491,0.558461238947495,0.528743411958907,0.484615985744715,0.58530687755606,0.45987042019268,0.436750209863453,0.390636087940149,0.555312187251961
-770,cane,12m,PO,0.585141606874022,0.527006402017763,0.49576787839798,0.58992906313728,0.533086687437986,0.443119637586455,0.569601300908365,0.473725981532885,0.591518441185568,0.536584786730375,0.551317719325244,0.560051824393843,0.532348995922504,0.48535457376028,0.585963003476638,0.463717748350452,0.431810931584269,0.394437051925082,0.556561320596927
-760,cane,12m,PO,0.586872394531407,0.525589767013649,0.492698620726698,0.593762330477191,0.53293834161427,0.436454592313474,0.569975040373729,0.472534024690554,0.588352573523719,0.538205537113434,0.551138811981663,0.561636589514141,0.535651498731113,0.486069799836434,0.586514014136463,0.467965048258006,0.427100050488594,0.398703096634222,0.557445586877515
-750,cane,12m,PO,0.589125440884913,0.523858526295542,0.488198303732097,0.597395479965295,0.532088508685312,0.430475603491561,0.569132473871615,0.471419803764517,0.584331291713746,0.540295026919029,0.551260669924217,0.563232117471644,0.538460559700125,0.487130917691356,0.586876025073241,0.472357653486497,0.422661524629065,0.402899878613652,0.557881069789206
-740,cane,12m,PO,0.591840412104269,0.52191992881498,0.482610281000137,0.600312434523439,0.530401579904748,0.425502382292923,0.566872426734391,0.470309447630485,0.579197618302664,0.543012798794154,0.552037022132166,0.564814651200091,0.541454354107797,0.488129634549517,0.586818421972896,0.477001401626066,0.418382409363565,0.40724743244402,0.557626312602888
-730,cane,12m,PO,0.594868846782145,0.519960927084361,0.476172713366105,0.602726858890661,0.528125586074139,0.421368964203053,0.563684885257099,0.469123577700706,0.574315913749461,0.546326389087881,0.55347256616963,0.566223011374453,0.544479584731885,0.489373625546418,0.58632446155191,0.481590155347665,0.41419262430606,0.411939692299416,0.55700949589351
-720,cane,12m,PO,0.598187324117783,0.517719081170901,0.468999330740166,0.604669334970191,0.525699579437042,0.416996666645773,0.560040989129682,0.467367477050815,0.570227867468659,0.550050180405788,0.554815438706098,0.5673856386987,0.546995299991065,0.490627888089777,0.585330273829362,0.486033306706972,0.410566318193863,0.416842516968612,0.556395708222904
-710,cane,12m,PO,0.601579102340921,0.515248292264667,0.461140620339395,0.60623110399762,0.523221128283683,0.412283737588919,0.556173116206254,0.465358441384392,0.566297717672859,0.554212007422038,0.556423357215205,0.568355733219082,0.549360912836002,0.491857304109493,0.584075000630075,0.490078753958086,0.407797376788795,0.421337681300883,0.555654942356
-700,cane,12m,PO,0.60496700416817,0.512620381118156,0.45295760775957,0.607203035646535,0.520917388276476,0.407236863978537,0.552153046668354,0.463744010623759,0.562532487540953,0.558823621263418,0.558193989254918,0.569076424319137,0.551387265195871,0.493283018234857,0.582403123452918,0.493555690244692,0.40593284985658,0.425568806741081,0.554605896010423
-690,cane,12m,PO,0.608479221981755,0.509672939053993,0.444969395124017,0.607737083908255,0.518683430871774,0.402192624692239,0.548047303284648,0.463001538460592,0.558928127932586,0.563725279479801,0.559683326348002,0.569393990874465,0.552938252536642,0.494921325238997,0.580175347881635,0.496666780614455,0.405269037037223,0.429437674412797,0.552875456244647
-680,cane,12m,PO,0.612071654841395,0.506598085939868,0.43755422383045,0.608324710657743,0.5167210420979,0.397295867409993,0.543937517279007,0.463310216238978,0.555519028226561,0.568779368417351,0.560976175948229,0.569357002526509,0.553946632762664,0.496735366573228,0.577092866363874,0.499636861987421,0.405628435009153,0.432917581684978,0.550328697100528
-670,cane,12m,PO,0.61575118572739,0.503421722444714,0.431515920361897,0.608778331359567,0.515459889787417,0.392378683869391,0.539733902273636,0.464179554397163,0.552315838436703,0.574089634538645,0.562069361997481,0.569073995389122,0.55481678810339,0.498714304852322,0.573275159475281,0.50253655922091,0.406946676736959,0.436170400639535,0.546964285211093
-660,cane,12m,PO,0.619358787682646,0.500362895211532,0.426848689378822,0.609218001295237,0.515299338808636,0.388069556135771,0.535375672296663,0.465633411126711,0.549268241868729,0.57934702439512,0.563159419930697,0.568603396994083,0.555429308793941,0.500583773424416,0.569157969932131,0.505806292239886,0.409466824211024,0.439343201638057,0.543098481433178
-650,cane,12m,PO,0.622841916981821,0.497267307452989,0.423497895991959,0.609418040860595,0.515826094546499,0.384179254793163,0.530628304618998,0.467692319432008,0.546143770044738,0.584473056359817,0.564477898977862,0.568167318907312,0.556016060790053,0.502363467158826,0.564507167133482,0.508605957380836,0.413369614104087,0.442462742846665,0.538859305401838
-640,cane,12m,PO,0.626182643795808,0.494608601090687,0.421756174350569,0.608648492159484,0.516674991854819,0.380688210851628,0.526141100461795,0.470014554728282,0.543142231076628,0.589357727167345,0.56602179734807,0.567601241716724,0.556772192713148,0.504116516483582,0.559806741122285,0.511312206687321,0.418217060274754,0.445737399716265,0.534312010332315
-630,cane,12m,PO,0.628915236319781,0.492452523389492,0.421677831896168,0.607127834332629,0.517633122814084,0.377883578155493,0.521931246422445,0.472513553504949,0.54041661232306,0.593829153551528,0.567661596399634,0.566751496604797,0.557956188619593,0.505740601448927,0.55509599688547,0.513715472602584,0.422663347064182,0.449242775682416,0.529775113587236
-620,cane,12m,PO,0.631638825316241,0.490464471563026,0.421726021722927,0.605496053979231,0.518918973143037,0.376800918983558,0.518503088378992,0.475165822761942,0.538102866681059,0.598208146607099,0.569421100604369,0.565402190685758,0.559418650776638,0.507108901272935,0.550254376079308,0.515516087322438,0.426924804332642,0.452915059642308,0.525357887633543
-610,cane,12m,PO,0.633792879059822,0.488945660731773,0.421871360153506,0.603504977894712,0.520642032480115,0.377496999138685,0.515027161190513,0.4782591517047,0.536252218829179,0.602490521790902,0.571350221315056,0.563726852618359,0.561127218955476,0.508209438752886,0.545290071239774,0.516796598238075,0.431740951733951,0.457067391610562,0.521023384374418
-600,cane,12m,PO,0.635532372507545,0.488051272573235,0.42248045490078,0.60067593151146,0.522178494721321,0.378721286913914,0.511272809004375,0.481793063243541,0.534379434627221,0.606640740508989,0.573545727531425,0.562178468702895,0.563089428211694,0.509067224302985,0.540008920894425,0.517289291477923,0.437249466863229,0.461389985107374,0.51643334227825
-590,cane,12m,PO,0.6368598288436,0.487765752590892,0.42381467908303,0.597545316488635,0.523281405021956,0.380098985855745,0.507452830879309,0.48567382824987,0.532648359354932,0.610461615614262,0.576175735263426,0.560564794850125,0.565336044095285,0.509695089571987,0.534810404538914,0.517924780526767,0.443412186194824,0.465698541087283,0.511329856537415
-580,cane,12m,PO,0.637762342659632,0.488069569485242,0.425841220240498,0.594573611162389,0.523781204011713,0.381484885199833,0.50382004306888,0.490037956079386,0.531092254865762,0.613826418252624,0.579231757797539,0.558742511866037,0.56779542330508,0.510038187070321,0.529638842408503,0.518745494751254,0.449473327787213,0.469878047648998,0.505395864524205
-570,cane,12m,PO,0.638306130760623,0.488762098096755,0.428638712533008,0.591778291648476,0.523271826259096,0.383067505116783,0.500248027533638,0.494511881500774,0.529666907292691,0.616827652156857,0.58269199345667,0.556874455091234,0.570750787379292,0.51011497782571,0.524422338138256,0.519316110391383,0.455863486154817,0.473734594072349,0.498719271009584
-560,cane,12m,PO,0.638523028555632,0.490328088382188,0.432318393739906,0.589127634694188,0.521968932366541,0.384875104314567,0.496672248149512,0.499022390342229,0.528340528650152,0.619313078071193,0.58662137286732,0.554936482173568,0.574473506797451,0.510179995936493,0.519129063899367,0.51919257501187,0.462870426365971,0.476888469942717,0.491757866491641
-550,cane,12m,PO,0.638751456530543,0.492480753442313,0.435971444060584,0.586564625545483,0.520503405792682,0.386797249611609,0.493891195789481,0.503678095839128,0.527675127069742,0.621373242617109,0.591144323541567,0.553010458584922,0.578669497240167,0.510124747909249,0.513597408126723,0.519130157661822,0.470376863373108,0.479579484792473,0.484870549651487
-540,cane,12m,PO,0.639127597597776,0.494724926429612,0.439414185014511,0.584134084967104,0.518388729163012,0.388582008811826,0.492123937825819,0.508147912962732,0.527580935377854,0.623022956185817,0.596365582773726,0.551724343597608,0.582918939265205,0.510047255628834,0.5080477194609,0.51982587662594,0.478265073991201,0.4821741956332,0.477964216336105
-530,cane,12m,PO,0.639670128071787,0.497049267343122,0.443209738590151,0.582144652296655,0.516035546084144,0.39074605291782,0.491261599161361,0.512585368461907,0.527529349106285,0.624200386613436,0.601415130583653,0.550825426793472,0.587090566565486,0.510196835508932,0.50233433372307,0.520819718423033,0.486388211622813,0.484803150887261,0.471583048068758
-520,cane,12m,PO,0.64026800680548,0.499375340298477,0.447087704059716,0.580737848926534,0.513774393975942,0.393643602437736,0.491473365196311,0.516910725986517,0.527795907141656,0.625114743805911,0.606637997108297,0.550388864835743,0.591193316390452,0.510717931371131,0.496349054942619,0.522038269620871,0.494468804848938,0.48737056647141,0.466116465021645
-510,cane,12m,PO,0.640997883173756,0.501470875957639,0.450947417572915,0.579261366776785,0.511851627779346,0.3976512015483,0.492799361982563,0.521086439112707,0.528535803640369,0.625792126431984,0.611515606458608,0.55010006249677,0.595211303403196,0.511382284803419,0.490403160938629,0.52356532891575,0.502381961502316,0.489926621890037,0.461540525022288
-500,cane,12m,PO,0.641786887428538,0.503424977152573,0.455165767685893,0.578527871710657,0.509997869528376,0.402413490917487,0.494769279823105,0.5253086318366,0.529837424698779,0.626394438611073,0.615589077946362,0.549966875501687,0.59876242897436,0.512418021217533,0.485030547213802,0.525755120087116,0.509568636738398,0.492410217452965,0.457973074759714
-490,cane,12m,PO,0.642640664976298,0.506195138239188,0.460245327601808,0.577996501228921,0.508224227097175,0.407601005164911,0.49696121162688,0.529037757979248,0.531669148528718,0.626888430905796,0.618947331948635,0.549739611470891,0.601412962605982,0.514280919753035,0.480317644657047,0.528755940809696,0.515884466674847,0.494876485790636,0.455510373952299
-480,cane,12m,PO,0.643453175622044,0.509574630234974,0.465360009186972,0.577922574649954,0.506442732519617,0.413333043577451,0.499326167027121,0.532517850329194,0.533243951976037,0.627020646395116,0.621740268391119,0.549259663235167,0.603228734954945,0.517065583141757,0.476203519104256,0.532682257932994,0.521611769031187,0.497328773851951,0.453978091252856
-470,cane,12m,PO,0.644088525587402,0.512654828362325,0.47016646908881,0.577475967884395,0.504317818119522,0.419283249530404,0.502023991230936,0.536190030922943,0.534236441510569,0.626444486259794,0.624803838961528,0.548291116310865,0.604308186831693,0.520203301461249,0.472756304806142,0.53697513014861,0.526598696757631,0.499754457195686,0.453169142280368
-460,cane,12m,PO,0.644529651437443,0.515480833432498,0.474083548692967,0.57628410495904,0.502013061080361,0.424904157708053,0.505628559537481,0.53984919570131,0.534913503565339,0.625565827899478,0.627362720618371,0.547167720930634,0.604548894845311,0.523565946002598,0.469632365208103,0.541216161134132,0.530831059410213,0.5020065568015,0.453055429554885
-450,cane,12m,PO,0.644988066998381,0.518296577880079,0.477510323748336,0.574908449688723,0.499459951356951,0.430592930679554,0.509675755468412,0.543231409245213,0.53534054255076,0.624434815931525,0.629235857859499,0.545958257252558,0.604065795773849,0.527187345357119,0.466719783832426,0.545192042174549,0.534179238956013,0.504235935821182,0.453377373917661
-440,cane,12m,PO,0.645632916820683,0.521602003142586,0.480525153090799,0.573095657732625,0.496953312746269,0.436714487642552,0.513852455711615,0.546798738912356,0.535406669892429,0.622994638778993,0.630358962902201,0.544190283067087,0.602831337191437,0.530783685333637,0.464363891680377,0.549193027986303,0.536265826909163,0.506506065940284,0.454364426543499
-430,cane,12m,PO,0.646417139744177,0.525371524516528,0.483012132338166,0.57062487201031,0.494618909103641,0.443328698229451,0.517974027802372,0.550584837618573,0.535139807809351,0.621382857487347,0.630767478056151,0.54210396977074,0.600558317751591,0.534377690962458,0.462355737792534,0.553561584070909,0.537736682903994,0.508963167616883,0.456213284236803
-420,cane,12m,PO,0.647238631301966,0.52911378731933,0.484921314320457,0.566909242813589,0.492596743137751,0.450365474112634,0.521800175803387,0.554494140580008,0.534474365804933,0.619673582264903,0.630489721064758,0.539837662357785,0.597602137133954,0.537835694359643,0.460809502265186,0.557946437790612,0.539360939894367,0.511376707874388,0.458470509938575
-410,cane,12m,PO,0.648239907336936,0.532485360895033,0.4857891069029,0.56214190966552,0.491231651982747,0.457310904924142,0.525157106776857,0.55835223590629,0.533019653379267,0.617777458659617,0.629357724515585,0.537047128505488,0.594123506210984,0.54119196360241,0.45985010183852,0.562344338929321,0.540747360777535,0.514179253783504,0.461187380570662
-400,cane,12m,PO,0.649617664292241,0.535556036128572,0.486250335843509,0.55679051307694,0.490710231350996,0.463853472180761,0.527914717397793,0.561646579090546,0.530886385765039,0.615545625064349,0.627387356246588,0.533827344193383,0.590006422971128,0.54440874148439,0.459281222634421,0.566017914079505,0.541950528468402,0.5172799693102,0.464505446337005
-390,cane,12m,PO,0.651265870536322,0.537910955992173,0.486633457539149,0.550244198723043,0.490718293069291,0.469760051965619,0.529935737054699,0.56442973298532,0.527054609608071,0.613199718363269,0.624778320281261,0.530536779053171,0.585286833417756,0.547324499663267,0.459104430929723,0.569723004199065,0.543257813715942,0.520935023742071,0.468041804521073
-380,cane,12m,PO,0.653030227615252,0.539638576765055,0.486901732508759,0.542999354297432,0.490517799809305,0.474911808047243,0.53034094863626,0.566724693633141,0.522506693492255,0.610908178026883,0.621691563554136,0.527370482880182,0.579801572068547,0.549927589704504,0.459169369800441,0.573349773683612,0.543770467478042,0.525379472276827,0.471237851358334
-370,cane,12m,PO,0.655085412347994,0.540970055194885,0.487096493139626,0.535479281168651,0.490343211137221,0.479533424094198,0.530026408221765,0.568290027345762,0.518099026144067,0.608503525262092,0.618217433576866,0.524324431821125,0.57368927065478,0.552004840976656,0.459498162434712,0.576882706970736,0.544246413826934,0.529715941093011,0.474353881961018
-360,cane,12m,PO,0.657576064651763,0.541977660915887,0.487289830823384,0.528011340007762,0.489839891628257,0.483830399814063,0.529161967069236,0.569211462478935,0.514651931035807,0.60577926468568,0.613912101349062,0.521399294478326,0.56729707991268,0.553366424378697,0.459967185377228,0.580421714581033,0.544517503122852,0.533406366793973,0.47718186386303
-350,cane,12m,PO,0.660485930946984,0.542835959876079,0.487351267238653,0.520632302480571,0.488830738666284,0.487731325368661,0.528057835533235,0.569539956308966,0.512715435733562,0.603043951486842,0.609103057254344,0.518510315144428,0.56098640568349,0.553844220145528,0.460174570636375,0.583942780634193,0.544408292044355,0.536634194615439,0.479852740184824
-340,cane,12m,PO,0.663611190617864,0.543624000208916,0.487136484509116,0.51361840542652,0.487284826566984,0.491104310265056,0.527443777857185,0.569875988662778,0.512475290978818,0.60066956608349,0.604075851538485,0.515432150517825,0.555170245203986,0.55365184392617,0.459743626806298,0.587442546483304,0.544144881559538,0.53945000944277,0.482348099974093
-330,cane,12m,PO,0.666880969729787,0.544506781759997,0.48668807202564,0.506792238408609,0.48491416115543,0.494272088436348,0.527531965134929,0.570399228177229,0.514335222203454,0.59854529688318,0.599004970115228,0.512141569131906,0.549938191931374,0.552651216323583,0.458688419880021,0.591000807482825,0.543521763468007,0.541821302038981,0.48453943882832
-320,cane,12m,PO,0.670213900058159,0.545475357036733,0.486148613341647,0.500317694554915,0.481850305976922,0.49772707193194,0.527746642361967,0.571183802088155,0.518360101599305,0.59658838588462,0.593980201435186,0.508756015384604,0.544850406209597,0.551093526018644,0.457130329757922,0.593849174746673,0.542136404791462,0.543716949443874,0.48748366582375
-310,cane,12m,PO,0.673553970995789,0.546537687719679,0.485595286749724,0.494412521072794,0.478103341212701,0.50122726906371,0.528090735149287,0.571825870679381,0.523872382474805,0.594916747647926,0.589070182312339,0.505755787800702,0.539573587746446,0.549256318786078,0.454970393386361,0.595429385299829,0.53944576884538,0.545132283103463,0.491017651514998
-300,cane,12m,PO,0.676802657952128,0.54824722287497,0.48528781119258,0.489289425791875,0.473649003379666,0.504936678220078,0.528640417528287,0.57243042653142,0.530634095736936,0.593504311731759,0.584314936494079,0.503279729966686,0.534230858628272,0.547230113186387,0.45237862858627,0.595998939528378,0.535894236766497,0.545973139550569,0.494906699247327
-290,cane,12m,PO,0.679906452793774,0.549994165182376,0.485649973828916,0.485350422505152,0.468823633373281,0.509061428824695,0.529339152895213,0.573246470086264,0.538358809512111,0.592562173484798,0.579686454275991,0.501115275593263,0.528683049919659,0.545422475162657,0.449707185684056,0.595572041670715,0.531939429226023,0.546225422640212,0.498000763679214
-280,cane,12m,PO,0.682808399602788,0.551265335582029,0.486714492522448,0.482955720244256,0.463803807012616,0.513314029690553,0.530035236813801,0.573782687509261,0.54658089510455,0.591903776138749,0.575038156013794,0.499259951561679,0.523074026697653,0.543735852226392,0.447065048251886,0.594258937579891,0.52799674185167,0.545867165906654,0.500630048864465
-270,cane,12m,PO,0.685622823832549,0.552411427071038,0.487813208804509,0.481657335158155,0.458724972881614,0.517570239632352,0.53012574845967,0.574033459649592,0.555181286363763,0.591470354792431,0.570227485742155,0.49763862949197,0.517393948899039,0.542239380943062,0.44452897645683,0.592509292003537,0.524000299503001,0.545219054946899,0.502233664411723
-260,cane,12m,PO,0.688203670537044,0.553123592982161,0.488415870714511,0.481142600892781,0.453189247397122,0.521331371215594,0.529822634211156,0.574135832160906,0.563102184990455,0.590600947857339,0.565438306733655,0.496539910207551,0.511227044134393,0.540733771327131,0.442724967480231,0.590354378599989,0.519399911167244,0.544241191521826,0.503461164522797
-250,cane,12m,PO,0.690395227323005,0.552838958389742,0.488671034903566,0.481720429316777,0.447498188299372,0.52468109192014,0.528883451874303,0.574342468224076,0.56954907329865,0.589623423466494,0.56086315947366,0.496027032880773,0.505119249400974,0.539154338752758,0.441139388913958,0.587748959948783,0.514327002565095,0.542632904036992,0.504424093706876
-240,cane,12m,PO,0.692312147697796,0.551549654633842,0.4885290763014,0.48312066745327,0.441573263668308,0.527424306805164,0.527663512208736,0.574750740922378,0.575052452362839,0.588745009143949,0.556572327319796,0.495944603274328,0.499044923237433,0.537609727979813,0.440018038654516,0.584570585727287,0.509224422420603,0.540621781816766,0.504776614250659
-230,cane,12m,PO,0.694220505955782,0.549768703942967,0.488067543252398,0.485138714180806,0.435467645066942,0.529913124620008,0.525966344927012,0.575326574971308,0.579537209718655,0.587750048829336,0.552602766618963,0.496344269704687,0.493092460119527,0.536125447446633,0.439870307375044,0.580936575093385,0.504686306002424,0.538444794084736,0.504839889674131
-220,cane,12m,PO,0.69591210393842,0.547079910824821,0.4872210917447,0.48767819552775,0.429296753306584,0.532188173716102,0.523867147318469,0.575817116215834,0.583281072874791,0.586138804319405,0.548992162503988,0.497162498140892,0.487426962311658,0.534484240189782,0.440435224426322,0.577570719942248,0.501132637585816,0.536388206109744,0.505005697928828
-210,cane,12m,PO,0.697255721983622,0.543867503423775,0.486122125020347,0.490537751190649,0.423006552829362,0.533610588468427,0.521556307992458,0.576484096344053,0.586580513598545,0.58416968772256,0.546035411936899,0.49825975795799,0.48195464841543,0.532641853385792,0.440882877307091,0.574469737205402,0.498856492282647,0.534290324781636,0.505032259701772
-200,cane,12m,PO,0.697796645759868,0.54047849516369,0.485215075412936,0.493685227816062,0.416828333899671,0.534273996534471,0.518929652075109,0.577003431221735,0.589620510328669,0.582179102633951,0.543956268894251,0.499694771079517,0.476831262359525,0.530546658203083,0.44144862072519,0.571635315800268,0.497676432820875,0.532107744157399,0.504554472532259
-190,cane,12m,PO,0.69762663677997,0.537017503201808,0.484721651482979,0.496587896818606,0.410729539636055,0.535088848531816,0.516162269922819,0.577311154414905,0.592742561163469,0.579466025095854,0.542748652891734,0.501368407391561,0.472373945353659,0.528144228990909,0.442289646288928,0.569404559999334,0.497191751162707,0.529818813931626,0.503612869089691
-180,cane,12m,PO,0.697075298072594,0.534100547038757,0.485136110688285,0.498727630604236,0.404896083404491,0.535674762091644,0.513670623805123,0.577960420546629,0.595934470828971,0.576269065226024,0.542269621122254,0.503202579637115,0.468702650220892,0.525402264106048,0.443189254435922,0.56684694905242,0.497400967358073,0.527557465420344,0.503195454566717
-170,cane,12m,PO,0.696365847881172,0.531538856343912,0.486284435036604,0.499803247007943,0.399574783920027,0.53605922090887,0.51161257600542,0.578710476598436,0.598854486444086,0.572918380306683,0.542415739929164,0.505373356013338,0.465457558718956,0.52237205776607,0.444130278137794,0.56337393818836,0.498962163933957,0.525191057105589,0.502289103896215
-160,cane,12m,PO,0.695555436629201,0.529341621724715,0.488278780728743,0.499667662969697,0.394872349227203,0.536190018666769,0.509802847865898,0.579334022160592,0.601739297924155,0.569455998018272,0.543312080601839,0.507545937429813,0.462778512152362,0.51959543452363,0.444948332597387,0.558922393870104,0.501644102150357,0.522720043147991,0.501562232810298
-150,cane,12m,PO,0.694651973506541,0.527155429760875,0.49111514381495,0.498863434212942,0.390811128588558,0.536203382450573,0.508501781482238,0.579758075701138,0.60324939661572,0.565822953465653,0.545027779819668,0.509632108302122,0.460608928938941,0.51709418363752,0.445469367748831,0.553689380326917,0.50495149761365,0.520117775931534,0.500926290152264
-140,cane,12m,PO,0.694125399499014,0.524624979760083,0.494962818178262,0.497503698631109,0.386991320827922,0.536186928621362,0.508576809133072,0.580529037601047,0.604322578490146,0.562187434009021,0.547515371192483,0.511790688780432,0.459499926432701,0.514818658749755,0.445834592266117,0.547795326078726,0.508771339021904,0.517524198187078,0.499678801203912
-130,cane,12m,PO,0.693467096592372,0.521917400944228,0.50084283031063,0.49551540353348,0.38350166737612,0.53600904405387,0.511960819763843,0.581350220000332,0.605484702249141,0.558311481466294,0.550469302926971,0.514030737529844,0.459312014899409,0.512976400791942,0.445663838664144,0.541313929875175,0.513002224107906,0.51441374569578,0.498031569313912
-120,cane,12m,PO,0.692217093184175,0.519468719944272,0.508017720892038,0.493658812963801,0.380610372960618,0.535250255784288,0.516893073398931,0.582090102367634,0.606734975879666,0.554442941327979,0.553099673035725,0.516476367552106,0.459901024207546,0.511547886632088,0.444494107634453,0.534483593060577,0.516960430201748,0.510672343225354,0.496292133865607
-110,cane,12m,PO,0.690491019363017,0.517373154565202,0.516082272134725,0.492167923621089,0.378121868602188,0.533681332312663,0.522572232804979,0.58298119723651,0.607679001805547,0.550529171696644,0.555606709690311,0.519153749040673,0.46063039072619,0.510059339786715,0.442961453215919,0.527321572825976,0.520537005922582,0.506668847632091,0.494489225155406
-100,cane,12m,PO,0.688389583095611,0.515428498905694,0.52462910711426,0.491067939122932,0.376063174959574,0.531388058273004,0.528563115504181,0.583960389318812,0.608331664400335,0.546769546847136,0.557959891040938,0.521933503392875,0.461839520610055,0.508176711394689,0.441195172509546,0.520173683026199,0.523420581248073,0.502422178021139,0.49252171777581
-90,cane,12m,PO,0.68635713534836,0.513820863450502,0.533242707652269,0.489958342823451,0.374543285335131,0.52842225788007,0.535174554753274,0.584895370332741,0.608671647836096,0.542871523982812,0.559588508280222,0.524605423752863,0.463281967768149,0.506114875399169,0.439408488785062,0.513469853749438,0.525872759883502,0.497737256214168,0.49039251918308
-80,cane,12m,PO,0.684461284586588,0.512773774183667,0.541480321324945,0.489257824902527,0.373594625919501,0.524292437478899,0.541307532354219,0.585668792205191,0.608703378331702,0.538748284922692,0.560516317773419,0.526996159946063,0.464963407610659,0.5042237212065,0.437832572542733,0.50742223589396,0.527938786958061,0.492842653071069,0.488620983044195
-70,cane,12m,PO,0.682632374354294,0.511935611236795,0.548863227262995,0.489353343427464,0.372857048714665,0.519366706896474,0.546452559701447,0.586328453297149,0.608484355459801,0.53458745320702,0.561141943714595,0.529038679050571,0.46680561852299,0.50219634451262,0.437023189417233,0.502040749516317,0.529548909672945,0.487682782410257,0.487092537830698
-60,cane,12m,PO,0.681109330167844,0.511255032472852,0.555547771110859,0.49032329337606,0.371740712191003,0.513928277255628,0.551357930644233,0.586876314318249,0.608122426290003,0.530593533987783,0.561737572723647,0.530436738852798,0.468795375831023,0.499854859357118,0.436899249956377,0.497090792016241,0.529911729370816,0.482284592435787,0.485615089758952
-50,cane,12m,PO,0.680035187012271,0.510789814074281,0.562142943131721,0.490937315604478,0.370853232039024,0.508779681842521,0.556343373032667,0.587143028980431,0.607605768481687,0.526377702118784,0.562208278178556,0.531266329582856,0.471600752038743,0.497138399011243,0.437742884295388,0.492183812098299,0.529868265422455,0.47688941978735,0.484365663273852
-40,cane,12m,PO,0.679310939767537,0.51078019871342,0.568796958160514,0.491024141948821,0.370472683907458,0.504134265512063,0.561649512237699,0.586655323463788,0.606946601260875,0.522156830428677,0.562659200074762,0.531581173363392,0.475326903118487,0.494017400443885,0.439489552235546,0.487709406709498,0.529933680393044,0.471709938965474,0.483358485571894
-30,cane,12m,PO,0.678916395858745,0.511375427046522,0.575061370929211,0.49083343633763,0.370106426723546,0.499831123376283,0.567033636736913,0.585707700326427,0.606186208783024,0.518120929702489,0.56327580254193,0.531627706548371,0.480297366704416,0.490416391709738,0.441998053245707,0.483598396365248,0.530037864793837,0.466805477807136,0.481914722482202
-20,cane,12m,PO,0.678847297565202,0.512516300198984,0.581363906076831,0.491176014092704,0.369566033308489,0.496070210232851,0.572362147768039,0.584245723250252,0.605347201468266,0.514283803921305,0.564223130271287,0.531265991172505,0.486157844115732,0.486273284486807,0.445271062564226,0.480004567250816,0.529834730309556,0.461913013761872,0.480078940587589
-10,cane,12m,PO,0.679025349238049,0.513896765600857,0.587450329828738,0.492322593725977,0.368812402556913,0.492930872202696,0.57781253539699,0.581995973855574,0.604481784262538,0.510683635307227,0.56560765372491,0.53052770156225,0.492132843792893,0.482058253990249,0.448715096988227,0.476952767944185,0.530788654073591,0.456947988805477,0.477645937053098
0,cane,12m,PO,0.679158802073231,0.515328438773755,0.59276216111956,0.49427777958223,0.367829573803287,0.490391562833036,0.583598256216459,0.579221044015218,0.603548450722413,0.507211635335131,0.567507214650003,0.529460650503952,0.497900827087514,0.477951009353331,0.452164317802353,0.474181720936649,0.531027217478496,0.452387122767081,0.474864615354807
10,cane,12m,PO,0.679325236296785,0.51672991390313,0.597090471101708,0.496880723147558,0.366420520092755,0.488517727889125,0.589692725893805,0.575778575890582,0.602639669409049,0.503975657210974,0.569976821464117,0.528360796394357,0.502721082620203,0.474292908284112,0.455459476866603,0.471568183949294,0.530748264975597,0.448531430661102,0.472059546710279
20,cane,12m,PO,0.679427332281896,0.518107196880309,0.599483815465827,0.500909318766754,0.365159968283995,0.48743580479062,0.596004613410395,0.571460304201287,0.601736852410732,0.501112020990396,0.573376602941302,0.527367297457559,0.506685069357112,0.471172158723839,0.458443952795286,0.469303870546282,0.530424603071635,0.445252913924834,0.469381552042957
30,cane,12m,PO,0.679514087629627,0.519526429159487,0.600965054965396,0.505292429507521,0.36457430186004,0.48761668530355,0.602347188842835,0.56668036199437,0.60011755089138,0.498839452100189,0.577730772194244,0.526562845234226,0.509340083989352,0.468791694197834,0.461076347324162,0.467743985494801,0.530003178145878,0.44245657539533,0.467172169377176
40,cane,12m,PO,0.679487186647622,0.520988687602394,0.602457178117145,0.509820883135824,0.364716899620049,0.488771664879915,0.608872672652245,0.561656794479024,0.598223524957844,0.497281722487714,0.582346434338429,0.526143622744451,0.510720728708531,0.467025706051445,0.463157294482465,0.466689908525868,0.52927998885225,0.440041645989225,0.465532535329613
50,cane,12m,PO,0.679604188169452,0.522134770578133,0.603903509367034,0.514400543067768,0.36551583130195,0.490556842598635,0.615734428049988,0.556535310672196,0.596447506523719,0.496505828307465,0.587054545503917,0.525987941416158,0.511339994243942,0.465527812963352,0.464955681809167,0.465852622823818,0.528352617020812,0.438011711463963,0.463680682335792
60,cane,12m,PO,0.679692935114731,0.52263888086754,0.604157458841186,0.518978045971309,0.366677903799358,0.492932795191687,0.623044372827152,0.55140999697991,0.5950201065511,0.496248888263582,0.592492223570623,0.525982656646691,0.511823506065777,0.463878897244506,0.466632890274884,0.46526478020281,0.527357508405395,0.43636446233014,0.461299930152024
70,cane,12m,PO,0.679880795100767,0.522767566171296,0.604174506716458,0.523335544604535,0.36839368937048,0.495512614847974,0.630397797910404,0.545928645201343,0.593894662278217,0.49618292832207,0.598061208226473,0.526316328407836,0.512362456544864,0.462320414644928,0.46860281843688,0.464785210448836,0.526122782592492,0.434991570694613,0.458845972407447
80,cane,12m,PO,0.680245945477118,0.52256067385042,0.604484248567611,0.527920890171524,0.370648046517457,0.498126030332291,0.637845416766744,0.540587129581478,0.593185194252236,0.496294063471619,0.603397981808836,0.526807310498721,0.512801890908156,0.460885935269585,0.470619502762075,0.464303527830758,0.524356590205013,0.433817872587842,0.456349704558341
90,cane,12m,PO,0.680583354906039,0.522065317439558,0.605287164978097,0.532640101758395,0.37285520484103,0.500863390072066,0.645019431421297,0.535604475071757,0.592903467306908,0.496776075677105,0.608399351586081,0.527128748578055,0.513002711251433,0.460197470501405,0.473078250254346,0.464196051129073,0.521627783870375,0.432603613894444,0.453230987281941
100,cane,12m,PO,0.680674768048474,0.521340261548946,0.605987225387584,0.537250848548475,0.374650478098878,0.503843946401449,0.651692097109299,0.53093289512758,0.592837858492997,0.497203625257299,0.612974451679753,0.527245724861813,0.513694986276454,0.460093643525977,0.476156178388183,0.464139532196643,0.518343122617132,0.431479617478023,0.45003914790608
110,cane,12m,PO,0.680620633102987,0.52026735341506,0.606184176022636,0.540970128827486,0.37617218639574,0.50642464954065,0.657773780107894,0.526517811227542,0.593024758382011,0.497831932840773,0.617068039761476,0.527327855797971,0.514279328627463,0.460294627585054,0.47982551924367,0.463671875282904,0.514905846297862,0.430521495373605,0.446806242959162
120,cane,12m,PO,0.680661019765864,0.518890853846437,0.605879140097709,0.543357002571526,0.37734442710638,0.509176275381919,0.662816741582286,0.522242491450665,0.593584878509552,0.498463391942087,0.620708972377994,0.527433207436698,0.514790076447426,0.460794700859043,0.483812736298796,0.462845504924976,0.511561820915013,0.429411072593206,0.443555346375266
130,cane,12m,PO,0.680753560087101,0.517185783133359,0.605620533868176,0.544353298024223,0.378077169907779,0.511528920674432,0.666690494575858,0.518191716099352,0.594485477844946,0.499184326874002,0.624016576288648,0.52749348011066,0.515303398783541,0.461539314205735,0.488185789691219,0.461453790710587,0.508131984998973,0.428047645138929,0.440076412907094
140,cane,12m,PO,0.680420076566453,0.515120272105366,0.605347104864137,0.54427140556127,0.37820546078383,0.513589177453288,0.669739545621722,0.514396054626549,0.595656186178883,0.499871242475979,0.627055316582734,0.527459334103906,0.514980691707037,0.462556826336505,0.492753215225699,0.459536020296544,0.505022033819322,0.426754693249161,0.437165352806748
150,cane,12m,PO,0.679628137049485,0.512503623249572,0.60508199161087,0.543153571445758,0.378279961153728,0.515230742345222,0.672042770352342,0.510895417800601,0.597000618661637,0.500109733434298,0.629831556981944,0.527114293733774,0.514178873430648,0.463526369980369,0.497245290911618,0.457547482015587,0.502291140909927,0.425566670308189,0.434933425724485
160,cane,12m,PO,0.678571931241387,0.509656381902262,0.60459283237926,0.541222138619893,0.378709093922016,0.51640498301449,0.673538505581636,0.507475550512018,0.598379921724263,0.500007221847242,0.632344174535809,0.526200310453117,0.513220442004991,0.464826008321352,0.501667918711704,0.455597943934052,0.500143452577432,0.424478107838149,0.433331391164437
170,cane,12m,PO,0.677280355540242,0.506674980940934,0.604407601928783,0.538521212065772,0.37910646912315,0.516928700118267,0.674254384951885,0.504200707205745,0.599613818321092,0.499798788268274,0.634436503749808,0.524781080650608,0.512121865082066,0.466353699343799,0.505748567167633,0.453922994398601,0.498156824626956,0.423781210952397,0.432087073363931
180,cane,12m,PO,0.675834523406378,0.504048025619895,0.604556144944743,0.535524021073641,0.379517564527739,0.517156428626283,0.674471562715023,0.501118063544175,0.600274986996615,0.499530779334507,0.635340501743412,0.523039205247065,0.51085078837868,0.468343328833503,0.509567108930298,0.453430449353079,0.49571935186018,0.423499322479218,0.431484547154167
190,cane,12m,PO,0.674439119379837,0.501742770986565,0.605015603687889,0.532713748627475,0.380208925779097,0.517211653768426,0.674173191278037,0.498148774170581,0.600695290950267,0.498967828529746,0.635544099163784,0.521172591676521,0.50967202112407,0.470830820987644,0.513275515185041,0.454041300956731,0.493188008727853,0.423319902667334,0.431193983908937
200,cane,12m,PO,0.673039793315866,0.499733815670809,0.60576909603378,0.530156347261734,0.381766816586109,0.517402251245065,0.672878879073387,0.49521154101678,0.600776348306496,0.498507042851524,0.635208447365622,0.519064135746284,0.508461935966391,0.473768133408834,0.516603018986064,0.455477617123202,0.490617324234112,0.423455761951962,0.430730628529606
210,cane,12m,PO,0.671018346196301,0.497995460464864,0.606753909836074,0.52783170544357,0.384373087378766,0.517541229529995,0.670714715610016,0.492471848218362,0.600544577414858,0.498130076824167,0.634360006297949,0.516769762199073,0.507336330784141,0.476880388837843,0.519542206214229,0.45714752703575,0.487421605603855,0.423827719217496,0.430405533039097
220,cane,12m,PO,0.668369630254687,0.496528096703718,0.607795491014129,0.525649820519993,0.38675157803668,0.517515274277803,0.668058736001836,0.489370942055305,0.600245078826515,0.498036315250428,0.632605079212622,0.514617180299512,0.506027509805496,0.479973598743658,0.521850764335771,0.459414304422773,0.483721152127223,0.42430360872294,0.430181776653874
230,cane,12m,PO,0.665077299786041,0.495157760363867,0.608904925008135,0.52346455704586,0.388975610313319,0.517379197669089,0.665009217335068,0.485837074851379,0.600016442042688,0.498411490295328,0.629936388110427,0.51256187725303,0.505030269391108,0.48319152586751,0.523498667512519,0.462169539279529,0.479872717572884,0.424807237392905,0.429855691908239
240,cane,12m,PO,0.661155495287137,0.493589428750497,0.610400001213116,0.52129483982502,0.391348840055949,0.516723134222118,0.661859708929306,0.482387119200512,0.599979120610946,0.499467317472412,0.625837670646211,0.51042664992348,0.504166637319815,0.486200968015407,0.524480984901295,0.465177822376391,0.476153612057227,0.425568965757613,0.429600740944986
250,cane,12m,PO,0.656911481841094,0.491697202884681,0.612372469717998,0.519197931911009,0.393663086536885,0.515152058838769,0.658245014675526,0.479364485916492,0.600688555880993,0.500874259065614,0.620717560713308,0.508310989895203,0.503849367411479,0.48869021748557,0.524833938401501,0.468531541510734,0.472415119492232,0.426273824139481,0.429186514026918
260,cane,12m,PO,0.652404481715358,0.489422475577882,0.614765853543533,0.517505000957803,0.396118940990011,0.512594592573945,0.654222087439288,0.476688786063333,0.602391318958246,0.502651383486477,0.615341957838393,0.506203694510677,0.504030468189873,0.490816067400953,0.524440217484064,0.472636230726659,0.469281366334822,0.426888266113084,0.428521530827041
270,cane,12m,PO,0.647669474167645,0.486908717259322,0.61739115707746,0.515752610004598,0.398342503213767,0.509638186157755,0.649786624338762,0.474288172755871,0.604998874944863,0.504768400361914,0.610134716025598,0.504077022014615,0.504620898873611,0.492388845781028,0.523551517017774,0.477241622117003,0.466334634890078,0.427235559209604,0.427333899823549
280,cane,12m,PO,0.642970453030391,0.484541133152524,0.620006771111196,0.514054522239173,0.400195849589286,0.506290537727568,0.645258198605288,0.472338938421205,0.608203095840509,0.507038020095828,0.605411968875292,0.501934986025639,0.504668591459433,0.493631762204611,0.522206256261885,0.482285163362984,0.463695844505155,0.427354247941058,0.425738147040148
290,cane,12m,PO,0.638375996347654,0.482237433275711,0.622822933435077,0.512165982688002,0.401256821282515,0.502518675008603,0.640461547078932,0.47108518720808,0.611649825167463,0.510384158537431,0.60153966954831,0.499898021465311,0.504752600415328,0.494011961307905,0.520127590684689,0.487934181287493,0.461403063508803,0.427523875717525,0.424675054559923
300,cane,12m,PO,0.633877719430467,0.480005524793077,0.626272901303229,0.510059592447685,0.401909402675705,0.498288486200887,0.635203145507072,0.470466495119088,0.614580106282681,0.51370326378615,0.599316932316296,0.498013876823743,0.504810006892664,0.494044643646667,0.517829999903639,0.494675461578674,0.459451256434349,0.42776637400904,0.423669029505205
310,cane,12m,PO,0.629489578152322,0.477853063355463,0.630075654376114,0.508262262326767,0.403075759130326,0.493696355044586,0.629533475084174,0.470153294819891,0.617209534577638,0.51682903302627,0.597560526362736,0.496315325588948,0.504294434637987,0.493965708736273,0.515155343243633,0.501960481805327,0.457778678658452,0.428129232022469,0.42333497230466
320,cane,12m,PO,0.62509341402248,0.475711404443246,0.632943965008622,0.50632217165772,0.404723372994874,0.489032325884,0.623531584406491,0.46982872765589,0.619526984105859,0.519811439550902,0.595861263493465,0.494956978675786,0.503622050102173,0.493520125140371,0.512062198041462,0.509117847592204,0.456223009956256,0.428578097722218,0.423366738011936
330,cane,12m,PO,0.620484328956311,0.473559487256324,0.635666739399196,0.503970325651704,0.407002347278677,0.484681616558412,0.617416141127653,0.469443162867162,0.621524314759679,0.523043504739851,0.594384169682597,0.494068125638988,0.502884454098534,0.492713261809619,0.508869092417116,0.514999925227313,0.45517608057219,0.429341685980866,0.423790397062649
340,cane,12m,PO,0.615887489904315,0.471759402234447,0.639078212257356,0.501290362402319,0.410163220953571,0.480749112556124,0.611099496444108,0.468783441469888,0.62316025679817,0.526538463374239,0.593093543481116,0.493641729380987,0.502025204169406,0.491767184614729,0.505493937947367,0.520831491102545,0.45470787859738,0.430259831974282,0.4244700821279
350,cane,12m,PO,0.611280625834371,0.470426119897709,0.642688927727302,0.498310624860532,0.413558534858953,0.476612715104807,0.604307487862159,0.46809564249381,0.624336998987798,0.530094021230259,0.591839452911136,0.493575392013411,0.501127790087027,0.490885769273238,0.50205503207499,0.526873744460917,0.455133214394286,0.431283498606197,0.425318351789757
360,cane,12m,PO,0.606582604841308,0.469068422824672,0.646467320439174,0.495186765770674,0.416935706321974,0.472411080879978,0.597087453758112,0.467668313525662,0.624874102450334,0.53359006414723,0.590418848591424,0.493858317629008,0.499928697689774,0.490357889102341,0.498880720587977,0.533011936289066,0.456233588826727,0.432727095209417,0.425819618041083
370,cane,12m,PO,0.602000091649176,0.467845437039089,0.650230663521526,0.492222445150435,0.420205897895803,0.468209601269161,0.589806075406145,0.468025686630702,0.624263908808049,0.537092204943296,0.588585620685308,0.49454488343307,0.497930616057274,0.490066532870626,0.496157138539663,0.539226577345531,0.458092436773447,0.434628369395889,0.425939926366615
380,cane,12m,PO,0.59729943408445,0.466361816432527,0.653727418405375,0.489148042780274,0.422953424081312,0.463721645958531,0.583416842850137,0.469787562348533,0.622705741815161,0.540322535094477,0.586080881257915,0.495352307083859,0.495075032238165,0.489846950111007,0.493803680499611,0.545235164762035,0.460846675326961,0.43705610898704,0.42632498659747
390,cane,12m,PO,0.592805276431067,0.464287739933248,0.656797046498472,0.485853414724982,0.425526583136909,0.459831083575738,0.577839162248164,0.472905736203587,0.62056205794818,0.543198588764779,0.582798329810928,0.496292190927962,0.491359291622655,0.489620266328724,0.491695403460628,0.550278143546304,0.464272122874559,0.440037712018972,0.426415892880249
400,cane,12m,PO,0.588644951758631,0.461552558152893,0.659108088725241,0.482999247102002,0.428129468474003,0.45612678132252,0.572659342365932,0.476778997518994,0.617988571159315,0.545758910327711,0.579565043735529,0.497173796004628,0.486854368627311,0.489228534131681,0.489566170318461,0.554760149032542,0.468004652630736,0.443571093618196,0.426315483421695
410,cane,12m,PO,0.584727534957499,0.458214709283235,0.661804507315776,0.481091194687536,0.430627589776523,0.452831339895227,0.567277860154684,0.481082828622584,0.614884459136321,0.547784916597746,0.576413420806996,0.497767271009765,0.481626735302406,0.488630187441541,0.487460142048387,0.558445394630447,0.471974899648156,0.447241036427433,0.425884874439461
420,cane,12m,PO,0.581133903692834,0.455465042872373,0.664178665526986,0.480545696158491,0.433014613290664,0.449927555014969,0.561705493764437,0.485832119734384,0.611494696545444,0.548968338403078,0.573205001240575,0.498225359340088,0.476252338564924,0.487618078680683,0.485469150321572,0.561548249495138,0.476476962290754,0.450944925063953,0.425330305384712
430,cane,12m,PO,0.577925689472375,0.454138811724953,0.666323739810924,0.481230750459352,0.435516977333946,0.447309508686624,0.556600975382679,0.490905018314117,0.607921520455612,0.549607152925912,0.569856253006307,0.498302765453035,0.472048242168063,0.486155532352023,0.483702899509387,0.564600046206694,0.48157636302662,0.454778289113242,0.424883305147646
440,cane,12m,PO,0.574963496296987,0.453020243884222,0.668265820124012,0.4831734141485,0.438205267715182,0.444831877766175,0.552348122756368,0.496134554586529,0.603836719270793,0.54979919413283,0.566438673448131,0.498263913610627,0.468043271151305,0.484498278992504,0.482362837109658,0.567734509203706,0.487238282058813,0.458503348874828,0.424801673866337
450,cane,12m,PO,0.572419677089666,0.452322859595061,0.669797893691189,0.486529874018397,0.440961256153815,0.442589996161128,0.549219778133051,0.501121397293234,0.599207925105543,0.549696814922342,0.563003206816753,0.498306682679938,0.463943071675235,0.482502975916909,0.48159996841099,0.570892452568609,0.492890576912951,0.462270242299197,0.425071081270648
460,cane,12m,PO,0.569993036648092,0.451860282336139,0.670837005263765,0.491524402977273,0.443330103170659,0.440797087558942,0.547763110518547,0.505645623585215,0.594030273967995,0.548747562264554,0.559347238994921,0.498469865454613,0.460236460629419,0.480149653114579,0.481597618075876,0.574484456083662,0.498588555350597,0.4661152225382,0.425806641299391
470,cane,12m,PO,0.567754275551983,0.451685020284451,0.671508802895864,0.497130768266472,0.445535155973238,0.439727545535422,0.547884952816716,0.50967597119554,0.588212670905778,0.547054195204419,0.555545351866677,0.498861198136515,0.456978850082431,0.47743614884244,0.482279320654934,0.578243348795009,0.504055479414242,0.469762684565283,0.427186919777559
480,cane,12m,PO,0.565654458596983,0.451839325400211,0.671553269545768,0.503175182947657,0.447662753148937,0.439591541121732,0.548758177181938,0.513262922295816,0.581605783402567,0.54534125997834,0.55158074779857,0.499232156784146,0.453947405350191,0.47473023859974,0.483455069714869,0.581839877863467,0.509591766553215,0.473083820130037,0.428438449423798
490,cane,12m,PO,0.563705735193861,0.452685236183149,0.670613026852042,0.509522634623099,0.449340103628507,0.440103427585791,0.549913139716234,0.516362913320632,0.574126831922319,0.542813626725679,0.547719738339431,0.499750513641588,0.451168138969222,0.472174361859021,0.484747232749117,0.584852102760251,0.515426665916546,0.475953278454234,0.430131795018424
500,cane,12m,PO,0.56210393210911,0.45400349658452,0.669051394139735,0.515811681307938,0.45077716622565,0.441443601945391,0.551116988501464,0.519022636794977,0.565902567058785,0.539249560044509,0.54497677058834,0.500486410013569,0.44863916235128,0.470083691212652,0.486232380689185,0.587022287786021,0.521683570441349,0.478362926208794,0.432743330044746
510,cane,12m,PO,0.560676815667163,0.455884872295785,0.66683405702656,0.520986589536139,0.451466219856589,0.443189470815397,0.551916938226271,0.52144593420222,0.557023918971841,0.535523196985357,0.542792950114495,0.501555143889215,0.446793339625489,0.468155638319086,0.488224767513323,0.588021295707547,0.527769266822512,0.480070409806012,0.435556737991814
520,cane,12m,PO,0.559517775069278,0.457951238776046,0.664546654625741,0.525285648179192,0.452345061598642,0.445410994340496,0.552028765149527,0.523673209093122,0.547410697896543,0.531814299519605,0.540821108268368,0.50279077670087,0.446089701114674,0.466090653775979,0.489890167252685,0.588394897044938,0.533770029405174,0.481438271093418,0.438191502319075
530,cane,12m,PO,0.558547979327426,0.460223753098687,0.662353204087954,0.529220669048332,0.453741426583471,0.448061371762718,0.551894504463387,0.525530239921776,0.536950348451894,0.528176318580124,0.539334350201507,0.504167599664662,0.446137514942895,0.464073044351115,0.49082447764204,0.588134988188483,0.539492429103506,0.482419558496394,0.440722905811776
540,cane,12m,PO,0.557849593287312,0.462456667862074,0.66035551075874,0.531785000192085,0.45593080266796,0.450650976314119,0.551393080902999,0.527263719662559,0.525338513954425,0.524687764863957,0.538801749649332,0.505786225916805,0.447247285415869,0.461867379274486,0.491438086675094,0.587064525466985,0.544601534147558,0.483070597584252,0.442558133026568
550,cane,12m,PO,0.557494029368161,0.464703770697234,0.658472746959157,0.533302084273156,0.458561477592188,0.45294874064872,0.550792753961606,0.529019688427444,0.512366556617361,0.521598347790716,0.539862656192284,0.50765896288145,0.449325068588352,0.45967119616952,0.491573544164773,0.585178130144605,0.548555273931413,0.48343635643494,0.444086768283051
560,cane,12m,PO,0.55729955197297,0.466744411934905,0.656141864611476,0.533836552900854,0.46166342915267,0.454859445096,0.550281417002321,0.530796704519507,0.498731971956999,0.517929371662566,0.542307025269781,0.509310229996438,0.451911602685665,0.457356325339866,0.490521076714499,0.582860019831093,0.551232985329556,0.483585706838768,0.445767049541265
570,cane,12m,PO,0.556979354152086,0.468499677497099,0.653548420395941,0.533346957025356,0.465811052031792,0.45615050807095,0.549509863022262,0.532464937131548,0.4844539664789,0.513730643049701,0.545388168649805,0.510684081606123,0.454680328087196,0.454580142371739,0.489445673080842,0.580612201502027,0.552872146245452,0.483423793612861,0.447924014658646
580,cane,12m,PO,0.556595044569768,0.470069429773799,0.651030817885474,0.531096358556166,0.471193554338143,0.456495417049287,0.548529174142397,0.534303024973025,0.469895385246043,0.509124224481289,0.548686768437433,0.511933013859493,0.457857899623907,0.451756807462096,0.488567473817685,0.578020972007815,0.553527053248058,0.482948297714062,0.450021109137041
590,cane,12m,PO,0.556266307228496,0.471191140011657,0.648345006647061,0.527712582449761,0.477369254070963,0.455902182987117,0.547838143358344,0.536691408967569,0.455373649336804,0.504171134227748,0.551846496770577,0.513126682252472,0.461121650292753,0.44868512658695,0.487630413433637,0.574535072347904,0.553161957065479,0.482265877734485,0.451931359532386
600,cane,12m,PO,0.556120601075743,0.471576031563029,0.645491414086212,0.523574122262966,0.484294778878588,0.454038615211114,0.548153388750476,0.539309869434899,0.441252218953126,0.499026902947414,0.555539532842456,0.515044584336877,0.464167966908057,0.445250337988536,0.486981260139547,0.57071640437877,0.551923956276503,0.481515129917852,0.454768086485272
610,cane,12m,PO,0.556246812193082,0.471548678345397,0.642536490385808,0.518836302181194,0.491325134014991,0.451082578115339,0.549467382338822,0.542068391604769,0.428210357018053,0.494052332637431,0.55982966726544,0.517154439263669,0.466589971682384,0.441885265711077,0.487038609088489,0.566585500620615,0.550311080702288,0.480895201441474,0.45829274525671
620,cane,12m,PO,0.556618052500625,0.47127746048832,0.639248696884451,0.513776259831722,0.498070088229146,0.447105556470437,0.551090696208301,0.545314903124956,0.417442349926061,0.489696371533854,0.564413641822091,0.518899065545069,0.468496031629392,0.438708658148772,0.487457912220311,0.562165908045695,0.548347548804561,0.480419342651664,0.462047709304739
630,cane,12m,PO,0.557250793700832,0.47096214374842,0.636218254169436,0.508575178082805,0.504221184757141,0.442441797790616,0.55268133596259,0.548690091829536,0.408410278735639,0.485727214819365,0.568950588576435,0.520214007627506,0.469769233825124,0.435770131780407,0.488215994483755,0.557748933712244,0.546329004334957,0.480199965470705,0.466848345515982
640,cane,12m,PO,0.558204480315195,0.470155596149135,0.633505708456463,0.503134056041866,0.509765426538025,0.437515205152731,0.554033059895738,0.550870078885065,0.399865986000548,0.481730465616374,0.573201828240382,0.521198011861616,0.470721727822716,0.433095726273362,0.48945964841406,0.55463805772561,0.544346493870896,0.48040625104178,0.47281951991008
650,cane,12m,PO,0.55958866185301,0.469406178074328,0.630653845049413,0.498283308373198,0.51475535609159,0.432207683001838,0.555216045970268,0.552271546253833,0.391250414745864,0.478347545866555,0.576789994238377,0.521868105010039,0.471465908633674,0.430595988050817,0.490865617644333,0.552120660933841,0.542252349264889,0.481337155389933,0.479481031427395
660,cane,12m,PO,0.561052712857807,0.469383092152901,0.627123003986111,0.493946849014731,0.519359669108306,0.42633164040798,0.556571611099536,0.552804701889064,0.382506798730179,0.475773079032175,0.579804859497454,0.522084451002726,0.471852852042384,0.428351339735759,0.492508468437183,0.549804269702387,0.540026548701972,0.483033414645396,0.485977019984609
670,cane,12m,PO,0.562577655131557,0.469559688634693,0.623263545426107,0.490152644986036,0.523568219488791,0.419834532351083,0.557753370772125,0.552513582235638,0.373945494987788,0.473617836589284,0.582381871112765,0.521545693538728,0.47202089779142,0.426417615646305,0.494172148877234,0.547341336938193,0.537733936263516,0.485499770902394,0.491909983814514
680,cane,12m,PO,0.564478798967808,0.469634237027763,0.619477577004292,0.48696450545868,0.527428277841175,0.412412866885928,0.558920461986976,0.552052341602896,0.367964273897247,0.472632049969896,0.584444554863838,0.5202433649823,0.472174765315583,0.424668853685145,0.495666147277415,0.544984407471735,0.535615208722024,0.488399998212913,0.497299856440303
690,cane,12m,PO,0.566742680749505,0.469547380312519,0.61569019162985,0.484303247415219,0.53115722292806,0.404145590002301,0.559995717011553,0.55178883911441,0.362664653960232,0.472190716427099,0.585874388373704,0.518448656908741,0.47242850952568,0.422761153818238,0.497068415445399,0.542935405912629,0.533456538609216,0.491489231235347,0.502294680706976
700,cane,12m,PO,0.568922649465685,0.46890065669165,0.611825988514961,0.482045856041946,0.534386106959803,0.396110161814886,0.561355809024096,0.551484830051886,0.358393568104264,0.471839791041158,0.586822591698308,0.51607778280899,0.472827323332122,0.420999969962393,0.49860615036175,0.541146037411918,0.531120592519369,0.494270026833093,0.506981450873825
710,cane,12m,PO,0.57103776924535,0.46787093084806,0.60791515648978,0.480152689723213,0.536813384366896,0.388835709289264,0.562844541462799,0.550921858458634,0.355632979216256,0.471431385857433,0.587852285545804,0.513423145865825,0.473311164539571,0.419598942923767,0.499995692555649,0.539794305431665,0.528428630256523,0.496361095609626,0.511233678258821
720,cane,12m,PO,0.572993594560394,0.466392220878103,0.604042859427838,0.478996986680101,0.538176952852611,0.38218652598966,0.564522806285174,0.550127173201523,0.354089926177495,0.471203168981443,0.5890760320041,0.510918158965941,0.473557086887517,0.418635222144288,0.50144343317677,0.539027209545834,0.525173730280832,0.498069023846114,0.514919772503119
730,cane,12m,PO,0.574817041452012,0.464722454559147,0.600297219653655,0.478798606363782,0.538808702581548,0.375542043698298,0.56621708889837,0.548931095181993,0.353684837448136,0.471284913423405,0.590498520208438,0.508446531776794,0.474413185841094,0.418212582736263,0.502730842539559,0.538919050152652,0.52170960869705,0.499733196158728,0.517750044443407
740,cane,12m,PO,0.576714865207138,0.463865954758624,0.596794853845736,0.479790516697577,0.538841194757548,0.368756553719508,0.567700330126546,0.547675579215578,0.354292192210534,0.471556601875829,0.59204319296383,0.506305090156086,0.475560775090461,0.418412767304862,0.503847081200965,0.539475549718328,0.518350568489525,0.501176784249078,0.519221093244066
750,cane,12m,PO,0.578714369147313,0.463088127691577,0.593680123314428,0.482522915533211,0.538371339529667,0.362240230228786,0.568704690819553,0.546574030983074,0.356101205730761,0.472068811940477,0.593549871606435,0.50442483614377,0.476450928960382,0.4191172042666,0.504797165074454,0.540506309697259,0.514995068181465,0.502255262370101,0.520092527860905
760,cane,12m,PO,0.580698769894023,0.461737676171557,0.591026161618294,0.486411907419513,0.537317713497278,0.356428989814932,0.569334908119609,0.545098382090827,0.36168388749635,0.473209600644411,0.595011964601206,0.503042318368924,0.476930166078249,0.420294783053459,0.505448400198429,0.541630646315429,0.511636656693136,0.502597508989782,0.520659959324546
770,cane,12m,PO,0.582465808389113,0.459893195298454,0.588796886612088,0.490516332174476,0.53570020070887,0.351423289263516,0.569812057802056,0.544210023777648,0.368796339129891,0.474264681115268,0.596392770079516,0.502435682532699,0.476842773204724,0.421802830387179,0.50554981912681,0.54311102596761,0.508858834371666,0.502561856907265,0.520666027676951
780,cane,12m,PO,0.583981276709746,0.457682413867976,0.587294386877563,0.494672615602529,0.534325154837328,0.346728407305573,0.570212372648567,0.543900377019197,0.376066645395335,0.475252186965305,0.597359157787579,0.502718596659463,0.476529600530256,0.423791299008822,0.505294943220828,0.545635015428843,0.506530917755751,0.502328185103539,0.519949538438359
790,cane,12m,PO,0.585102377923051,0.455448542410518,0.586916762259877,0.499577228510993,0.533107669839012,0.341952079793339,0.570534797760243,0.543958866292569,0.382637907070759,0.476093901470748,0.597469021305522,0.50390564360812,0.476032801798064,0.425987559850426,0.504638481756212,0.549580477305746,0.504861088444545,0.501700058122299,0.519000657746503
800,cane,12m,PO,0.585817175911665,0.45344935563075,0.587803418355233,0.505086869781187,0.531896615095401,0.336945418184526,0.570661059091762,0.544186658990403,0.388962537554436,0.476656268991591,0.597063896447461,0.505342389094327,0.475205411153881,0.428314455901312,0.503683397624985,0.553845430571144,0.503816267884857,0.500905422807827,0.518101033439316
810,cane,12m,PO,0.586164406360428,0.451333201955477,0.589542235270547,0.510948062263596,0.530530431357183,0.331943553836587,0.571228777965743,0.545059203484914,0.395191156643954,0.477365712758399,0.597245554217956,0.50729014210753,0.474058090247764,0.430635529257629,0.502660256539546,0.558233413637062,0.503144434902243,0.500199491794746,0.517264812651905
820,cane,12m,PO,0.586394316608623,0.449331513160124,0.592043770949457,0.516531057020384,0.528907451768021,0.327268449119143,0.572243108805675,0.546495168309517,0.401206366700255,0.478316605086979,0.59763855810169,0.509451497973079,0.472495056847176,0.43287460621928,0.501513365266477,0.562874846151041,0.503198522875781,0.499415636773247,0.516340887660321
830,cane,12m,PO,0.586587618409791,0.447694905033401,0.595137728059276,0.522013902181221,0.527151234283441,0.323529834438671,0.573638411822998,0.548266806752637,0.406803257783789,0.479495921955648,0.598002061984632,0.511658746357727,0.470468132426957,0.435299891632428,0.500799209290642,0.567732242524656,0.503633188407371,0.49855956432719,0.515099956733777
840,cane,12m,PO,0.586907527949281,0.44615010780319,0.598582605849921,0.527532274899154,0.525753197569817,0.32051801474539,0.575374774637165,0.550306179419553,0.411850084640006,0.4809989789398,0.598136428989736,0.513883138903291,0.468057133908606,0.437935732556847,0.500563869167125,0.572492090249537,0.504053889726152,0.49772960175552,0.514075596008719
850,cane,12m,PO,0.587518623572475,0.444773905739292,0.602104225504533,0.533173557281894,0.524255869477724,0.318299165857959,0.577652358270255,0.552433177845401,0.416390378869513,0.482762196722454,0.597766553031952,0.516624364937451,0.465723652943133,0.440718638853578,0.500633238156429,0.576463971705876,0.504832331240488,0.49706239188343,0.513821402394521
860,cane,12m,PO,0.588560737357759,0.443370357622492,0.605395687771509,0.538546201956493,0.522276256108088,0.316808060392407,0.580701034505901,0.554564353905447,0.420466581749917,0.484347661726784,0.59635125931063,0.519624839985054,0.463475052384172,0.443381746402221,0.501098309442922,0.579632322681306,0.506119235166923,0.496583230166584,0.514426956796846
870,cane,12m,PO,0.590267850975167,0.441733984817745,0.608412838560604,0.543178281516492,0.519588043470393,0.316146981402314,0.583538514582148,0.556699769880727,0.424101598310786,0.485547674558715,0.593644336863354,0.522752587831465,0.461572691150058,0.44587830128736,0.502115421586886,0.581832724827214,0.507858105397735,0.496234839950838,0.516108908429545
880,cane,12m,PO,0.592549585845578,0.440189360110269,0.611284422940015,0.546863619000736,0.516420971641538,0.316754128764724,0.586038295283018,0.55886208562106,0.427474218080914,0.486624435076433,0.589929562209256,0.526213605036174,0.459543779737653,0.448101740512989,0.502545269950977,0.583111982690047,0.509970394615392,0.496041479792598,0.518376514028445
890,cane,12m,PO,0.595200822544839,0.438911032097296,0.614706571410218,0.549239796813196,0.513135157964464,0.319042511668017,0.588058751096761,0.561296179677044,0.430625405133979,0.486886997154311,0.584953513114439,0.529831716476149,0.457504806826237,0.450564381414836,0.502600995029602,0.583569501904847,0.512315393267123,0.495799464440558,0.521222656187721
900,cane,12m,PO,0.597912073618967,0.437833832381805,0.617823261592093,0.550015469719291,0.50924260350885,0.323181059058028,0.588973028427845,0.56365770240386,0.433425702526847,0.48687583139949,0.578816364382965,0.533616656638347,0.455179476713937,0.453626505402166,0.502568972328874,0.583385377006845,0.514581757918041,0.495356661508657,0.524273538470044
910,cane,12m,PO,0.600545980314574,0.43657129474592,0.61936262122283,0.54976652226045,0.504651664003569,0.329346380002676,0.589042742987184,0.565913892572888,0.435827971625107,0.487025011500547,0.571613875927913,0.537220848016487,0.452332595548617,0.456664838588209,0.50266211140159,0.582530018098321,0.51705586014144,0.494868022508759,0.527545517949048
920,cane,12m,PO,0.602888949793146,0.435506060983245,0.620544598916501,0.548791751098822,0.499846419731882,0.335985660322824,0.589292586278967,0.568050922269372,0.438359844411216,0.487718839354746,0.563491178809064,0.540516707547376,0.449126662206006,0.459582268160927,0.503382575682365,0.580937574225389,0.519552211820245,0.494273855057973,0.531654836988925
930,cane,12m,PO,0.604964691332971,0.434890814223012,0.621071286378625,0.547608410284158,0.495038169072253,0.343091337535229,0.589268754254102,0.569802447467119,0.441233732836812,0.488656439063132,0.555113545268846,0.543560724553318,0.445867369351119,0.462024076605236,0.504616363514628,0.578602192726988,0.521764319359851,0.493487182908362,0.536128155751873
940,cane,12m,PO,0.606641432112581,0.434245978159321,0.621239309107922,0.546550295704582,0.490142802871624,0.350619063894753,0.58825983423592,0.571046306863775,0.444360004612038,0.489732554727984,0.54680590370532,0.546130299878783,0.443159949407353,0.46382085210177,0.505980528178335,0.575913433391241,0.523725356744148,0.49273680222992,0.540130533525465
950,cane,12m,PO,0.608159484409095,0.433454652859458,0.62167291645694,0.545373365510709,0.484936369281761,0.358574900282965,0.586569921602415,0.571705674477096,0.447539961796016,0.491515045219716,0.538324792121463,0.548223560560911,0.440683131315009,0.46504420988478,0.507569989270564,0.573084656226867,0.525445308567009,0.492195144731133,0.543494164121728
960,cane,12m,PO,0.609685651750588,0.432110250265765,0.621863439207987,0.543823826904946,0.479970289512565,0.366963933978486,0.585029776263157,0.571865323730786,0.450728699054353,0.493597542407929,0.529529398539981,0.549850375505971,0.438380218488024,0.4656358064849,0.509517275969314,0.569905582503382,0.527186978228551,0.49183310130399,0.546133710689142
970,cane,12m,PO,0.611451719037298,0.430669808961792,0.621375076120245,0.541758828832431,0.47560661762313,0.375747197514004,0.583405468072833,0.571213425110851,0.454175818584621,0.495533645600484,0.520748621804047,0.551094674202338,0.437088342369331,0.465807386654111,0.511599348096552,0.566560501343682,0.529250367051453,0.492003029762479,0.548227722222993
980,cane,12m,PO,0.613321089890268,0.429317766176369,0.620456439954692,0.538951391585464,0.471604377262496,0.384774476601472,0.581435568634556,0.569831573607348,0.45771190710476,0.497232813991032,0.512958794595897,0.551672005835625,0.437058417817137,0.465887442761084,0.513838964869344,0.56239921205893,0.531700497229807,0.492440885261377,0.549985999707519
990,cane,12m,PO,0.615316445077553,0.428237242246773,0.619471604229466,0.535597181598181,0.467896529933268,0.39378968397318,0.578772648423073,0.568116248020723,0.460954797531895,0.498632011232792,0.506257616372948,0.551880725594522,0.437772296224248,0.465838272441242,0.516359755067925,0.558142779835197,0.533951885277363,0.49300523119352,0.551261187145481
-1000,grasp,12m,PO,0.732310094053609,0.468259730123195,0.620228952592484,0.537926756474817,0.477594978140738,0.435701619724032,0.541597109459721,0.571528230326634,0.542345755142668,0.527376086226919,0.536572668140039,0.485347909852865,0.467404559642519,0.491133207778044,0.474527005964764,0.544078334742034,0.565542755336534,0.513265488579335,0.531570375211188
-990,grasp,12m,PO,0.732944166962486,0.471672150167839,0.620099025420086,0.540946979624156,0.476924330658115,0.434346719646008,0.544571160523983,0.575537039969315,0.539986515685508,0.525060593136632,0.536346332018546,0.484697590197988,0.468412375801824,0.489602607742717,0.475591733228662,0.551168736687751,0.568041704384217,0.515026064372895,0.527562755618365
-980,grasp,12m,PO,0.733201304896369,0.475447044666668,0.619556722379445,0.543444303393204,0.476194865897812,0.434194740102525,0.546848614464549,0.57937662997801,0.536315894531136,0.522654052332566,0.536273281794076,0.484524099491602,0.469229529327935,0.487966649394507,0.4762746939139,0.557927368632547,0.569942621024436,0.517070515466595,0.52292929459683
-970,grasp,12m,PO,0.73332481068037,0.479526456027697,0.618668554417658,0.545625354966475,0.475234457411291,0.435240681857583,0.549034688489744,0.583268416841351,0.532176962905786,0.520092148764723,0.53675056902411,0.484615496175954,0.470066674569143,0.486158309097234,0.476771840640658,0.563533737380045,0.570736919190246,0.519238546825725,0.518006184329815
-960,grasp,12m,PO,0.733173777440325,0.483731000447075,0.617147605434432,0.547550907743008,0.474101959899546,0.437321526422187,0.550411848471087,0.587417679463911,0.527709026370304,0.517504754953159,0.538043111648855,0.484953450813117,0.471369626506798,0.484362488064128,0.477066694684623,0.567518807779578,0.571044293141012,0.521073528735872,0.51304086816785
-950,grasp,12m,PO,0.732609377471137,0.48763558209948,0.614997655228582,0.549195963736893,0.473174258752503,0.440063830876799,0.551356881744602,0.591328399412089,0.523301009978591,0.515019481257563,0.540059387798143,0.485609767506043,0.473337967645689,0.483062399547827,0.477097786205036,0.569342094208269,0.570850454626109,0.522353460534142,0.508164998836024
-940,grasp,12m,PO,0.731747181584359,0.491210001769446,0.612460589228972,0.550478285988325,0.472360257922386,0.442893672933915,0.55217433132979,0.594501489653218,0.518745808129959,0.512454705087843,0.54257880826582,0.486939660039755,0.476022631628408,0.482251249569939,0.477155148742431,0.570035109162225,0.569880624552282,0.523205584153037,0.503483057101863
-930,grasp,12m,PO,0.730665460891545,0.494685338379619,0.609445568130642,0.55182510655607,0.472268726090083,0.445710151416416,0.553838350961869,0.596793934726919,0.513924526632487,0.509621501311137,0.545503837914958,0.488717385758413,0.479811058170445,0.481422316197789,0.477258572552542,0.569038832074507,0.568661529927353,0.523646593771696,0.499150256600449
-920,grasp,12m,PO,0.729330506109823,0.498351388979191,0.605775583635969,0.553531492633399,0.472542277517019,0.448404921048037,0.556354934476671,0.59753276753088,0.509543639135656,0.506619924742733,0.54876378730447,0.490865104438255,0.484037078669662,0.48053939383671,0.477509162599087,0.566751156595255,0.567515522381585,0.523572530147191,0.495042942834592
-910,grasp,12m,PO,0.728169678581648,0.501737058836406,0.601205891403916,0.555764679671759,0.472698739649718,0.45062520891325,0.559442707035442,0.597048742027441,0.50625316179864,0.503528266500209,0.552088204745554,0.493363607917893,0.488327874483121,0.479780468367464,0.478041361905102,0.563501473057121,0.566401709354458,0.523105501910204,0.491213786745587
-900,grasp,12m,PO,0.727234055066734,0.504911485883522,0.59581321701923,0.558248598838303,0.473032165634055,0.452147606209495,0.562683520783444,0.595551364735878,0.503750422660834,0.50126633791376,0.555079309149357,0.496271099444447,0.492462685710877,0.479316637577349,0.478923618716177,0.559078676120893,0.565277654249629,0.522491801714534,0.487611306675474
-890,grasp,12m,PO,0.726294937978014,0.507921878298246,0.589987644514224,0.560650543950465,0.473648946028958,0.45314966446851,0.565793383101872,0.593422097800662,0.501743030269183,0.499440458804867,0.557594438058813,0.499598393886749,0.496334173429877,0.478873057789396,0.480155963662338,0.554031262599093,0.564005712950616,0.521880917054998,0.484065541706746
-880,grasp,12m,PO,0.725296781451113,0.510851044936426,0.584147985155357,0.562572289630713,0.474202664345288,0.453597955423812,0.568744654935876,0.591088641888417,0.500003632441545,0.497903286352239,0.559417814840069,0.50332587608799,0.499498250666009,0.478244202355389,0.481532468741525,0.549081203356971,0.562619216094346,0.521415877237649,0.480311604215914
-870,grasp,12m,PO,0.724148189878621,0.513914911952348,0.578247971180496,0.563181857516461,0.474878461196106,0.453511671659428,0.571416684149566,0.588686919733694,0.498541627247954,0.496589345950829,0.560292640535839,0.507405209717324,0.501988658450129,0.477319182353384,0.483056180523734,0.544374649891697,0.561103581788705,0.521300351299762,0.47648746107684
-860,grasp,12m,PO,0.722923800106866,0.516821877813204,0.572590658655608,0.563006123010814,0.475798297222042,0.45377526069524,0.573588399308268,0.585982847062547,0.497192406856861,0.495681991417764,0.560941431686706,0.511617567865071,0.503667020755449,0.476016542734789,0.484708780157626,0.539916756893319,0.5590466221663,0.521408240385707,0.472604932326477
-850,grasp,12m,PO,0.721614417864269,0.519664181967444,0.567014459363378,0.561993333646492,0.477131601994559,0.454294459274394,0.575330926332364,0.58263112832059,0.495756416410379,0.495091316386605,0.561577404279376,0.515287668331479,0.504725844097459,0.474357877535604,0.486312578439826,0.535905237759036,0.556336098026088,0.521354873154347,0.469019419367148
-840,grasp,12m,PO,0.720218085026601,0.522486673540077,0.561388145108026,0.559964477752605,0.478459425881628,0.454750332614363,0.576562089596835,0.578994949486503,0.494245685276912,0.494562110350789,0.561698547488431,0.518323820484953,0.50543326622672,0.472330671341432,0.487843047131766,0.531443220762241,0.553769128878533,0.521223345914843,0.466494130177332
-830,grasp,12m,PO,0.718631539403927,0.524986353630999,0.555775768663758,0.557532632990009,0.479894041718202,0.454764869408937,0.577357812675135,0.574994482881142,0.492675956622493,0.494139581468169,0.562018561336071,0.520611925613471,0.506027199344417,0.469794379630456,0.489345406315562,0.527297217758331,0.549937548602689,0.521057559327894,0.464264406446224
-820,grasp,12m,PO,0.716948042735137,0.527043356785353,0.550198471219962,0.554666894910226,0.481180917581552,0.454537658563465,0.577199243072911,0.570794237292434,0.491347937477856,0.494042020867357,0.562258231989689,0.522442598488838,0.506644040507993,0.466970260066654,0.490721111431674,0.52339250877794,0.546376333348796,0.520861541642529,0.461938732366319
-810,grasp,12m,PO,0.71503542155995,0.528539317712592,0.544539716163176,0.551399398778288,0.482295910631497,0.453931032822352,0.576283687157042,0.566117501988229,0.489729754900559,0.494191368076462,0.561953874865428,0.523951796513267,0.506900902483726,0.464177906823532,0.491834358212255,0.519489986656838,0.543377770758967,0.520586908569906,0.459718436073158
-800,grasp,12m,PO,0.713136401504262,0.52978642385964,0.538963089794237,0.548092914823244,0.483192023240368,0.452948076257672,0.574535356063264,0.561194997682267,0.487378268372065,0.494208555026654,0.561422816207997,0.525243883360369,0.506922236995263,0.461346087203006,0.492423597493085,0.515531986145608,0.540802081378889,0.519985930681649,0.458009694235721
-790,grasp,12m,PO,0.711214521376242,0.530878079791781,0.53359799863498,0.545011303368567,0.484026074709327,0.45150271261268,0.572350139268169,0.555963990232648,0.484546647379007,0.494215300204301,0.560605502454552,0.526231008550738,0.506599235941661,0.458538103903561,0.492646170140292,0.51157919266872,0.538583906450785,0.519043260388611,0.456603290503734
-780,grasp,12m,PO,0.709106192699572,0.532100649084164,0.528467368888563,0.542772336417917,0.484434992966488,0.449607849497379,0.570006103034535,0.550726205669961,0.481459883530495,0.494626755250129,0.559228165624626,0.527078914106238,0.506051548727178,0.456043143364717,0.492507121644943,0.507115189639133,0.536590454164757,0.51779729671047,0.45565269893422
-770,grasp,12m,PO,0.706949442956629,0.533591982781375,0.523904604016427,0.541137795403456,0.484549148862345,0.44718673453434,0.567291138102583,0.545692328937235,0.478329147215152,0.49571365381504,0.557178650393366,0.52767495700837,0.505495079425121,0.453864482166776,0.492084632168498,0.503400821293786,0.534847590214477,0.516240704509508,0.455625634267973
-760,grasp,12m,PO,0.704819336612395,0.535775912965675,0.519759762618901,0.53930487362992,0.484575765558142,0.445230827840752,0.563981424800673,0.540823295436003,0.475504709390169,0.497117695659774,0.555172189722738,0.528085820415218,0.504834756922128,0.451949763262911,0.491417437970173,0.499806084668177,0.533407706571566,0.514448216449364,0.455712168336465
-750,grasp,12m,PO,0.702685382430994,0.538482793209087,0.516678648458949,0.537035962010092,0.484653506163513,0.444609564570319,0.56022932678546,0.536299001348109,0.472955803510826,0.499171987805908,0.553527099959922,0.528101857621859,0.504237076289646,0.450297414773152,0.490694744147719,0.495935988414336,0.532007115566872,0.512314033815227,0.455914948978931
-740,grasp,12m,PO,0.700477299662202,0.541383431982358,0.514317402601537,0.534104902587252,0.484732074543818,0.445308322218616,0.556181602711522,0.532261006575534,0.470615550809928,0.502116575190021,0.55229942710863,0.527914905144965,0.503837082798486,0.44901710654806,0.489753529720791,0.491885525777762,0.531223788857132,0.509907303827708,0.455921815544134
-730,grasp,12m,PO,0.698163049844022,0.544182406846102,0.512752150113055,0.530543761397645,0.485019697118383,0.446255877740045,0.552049428816109,0.528960688813617,0.4682788296992,0.50556480952121,0.551605283965827,0.52760407328797,0.504139386121978,0.447924103538761,0.488717162553265,0.488030554939883,0.531962351773624,0.507456654272647,0.455829408660796
-720,grasp,12m,PO,0.695585951403892,0.546776003229545,0.512109705799055,0.526775962370999,0.485602810319683,0.44697785033443,0.548019340353248,0.526191063584692,0.466585868880348,0.509567481484536,0.551861645553862,0.527018811891745,0.505122644495876,0.447231534089644,0.48774718907079,0.484879689615948,0.53362423552671,0.504865597452349,0.455863774341999
-710,grasp,12m,PO,0.69246211286087,0.549322415965345,0.512055618800798,0.523110940232305,0.486265557278568,0.447617135749684,0.54362258507026,0.523820552212735,0.466056495540858,0.514306262508127,0.553090345345697,0.526240578118164,0.506699926142896,0.447045285928028,0.486789477038168,0.482593565578242,0.535388189786135,0.502298993458965,0.456233325787919
-700,grasp,12m,PO,0.689102361496877,0.551710046703759,0.512556526323897,0.519664411473355,0.487191627123089,0.447907183274879,0.539685096283537,0.521728774111462,0.466951500080722,0.519448005044994,0.554437783812819,0.525072610506737,0.508699221639282,0.447217848282517,0.485942815407019,0.479635423420796,0.537095183199995,0.49985846260891,0.457406563064762
-690,grasp,12m,PO,0.6855492601104,0.55386529106857,0.513745945203452,0.516222078023695,0.488375077499862,0.447610874062103,0.535636856761609,0.519955834546563,0.468608543901277,0.524628118806247,0.556364146624897,0.523672061910615,0.510897331977164,0.44762002530393,0.485084880033172,0.47736262176471,0.539494809432962,0.497761669328944,0.459109979302021
-680,grasp,12m,PO,0.681875908833065,0.555634301457011,0.515716272927177,0.512734816157582,0.48963552959082,0.447072660094992,0.532475738248741,0.518417915075332,0.470887426683363,0.529594870161556,0.558949075992661,0.5220318792734,0.513089495368487,0.448175164072032,0.483895153346112,0.476584606033877,0.542309618948301,0.495561543779434,0.461229493793742
-670,grasp,12m,PO,0.678118990018934,0.557209772908997,0.518109252342345,0.509192585494083,0.490658717782964,0.446154281474656,0.53022626148545,0.51702792352748,0.474091447960701,0.534594323407753,0.562215718635956,0.520036558781869,0.515193436071944,0.449052933192903,0.482886482479662,0.47636785936455,0.54521834731462,0.493109687387619,0.463716477360976
-660,grasp,12m,PO,0.674390939446535,0.558805413119114,0.521016792765859,0.505560345037738,0.491622745426681,0.444926941812117,0.529094589649204,0.51592382805423,0.47818948800902,0.539689128289762,0.566197634578802,0.51781782077277,0.516868795563618,0.450180172984679,0.482569559160317,0.47593148526294,0.548301849667119,0.49048116505047,0.466491913811974
-650,grasp,12m,PO,0.670812318430936,0.560370669734477,0.524010661593153,0.501936823173497,0.492384463204525,0.44350958981654,0.528733064259397,0.514664482916642,0.482885259654815,0.544826229126773,0.570892366624845,0.515052565510009,0.517989936419226,0.451846263369966,0.483073688558606,0.475698410321605,0.551191590293159,0.48772828393068,0.469452254101514
-640,grasp,12m,PO,0.66739078457631,0.561915549059877,0.526876393021339,0.498608126964297,0.492920134772066,0.4418488457384,0.528672960762527,0.513184187713325,0.488803529806795,0.550012521913742,0.576262098845738,0.511826391784641,0.518679574115431,0.453676867565934,0.484568236921268,0.475651605874217,0.553385180816999,0.484842972792617,0.472561408540394
-630,grasp,12m,PO,0.664055089335414,0.563608970820609,0.529609484676344,0.495504708277938,0.493263657852705,0.439911686043572,0.528947029785957,0.511571603951959,0.495286610906237,0.554938542846767,0.582212954692422,0.508320195354313,0.518907014693053,0.455483875064124,0.486933944784078,0.475402810311141,0.555559472185993,0.482066538027569,0.475870716656974
-620,grasp,12m,PO,0.660785690114009,0.565337712039139,0.532292617704531,0.492501825276696,0.493464537830752,0.43777845268552,0.529686295977677,0.510039914409045,0.501823523008239,0.559725469603894,0.588562888014774,0.504713625388692,0.518901751557948,0.457246142344876,0.490119137309515,0.474500442875891,0.557817444233975,0.479997031073298,0.478935271811858
-610,grasp,12m,PO,0.657755969201246,0.566576814429203,0.534878822979344,0.489702247426408,0.49359976022911,0.435612208799995,0.53083196199954,0.509080520944691,0.507977006404412,0.563941002335278,0.595026674595018,0.501090091581811,0.518532816659749,0.459108523738746,0.494008268041557,0.473771659744064,0.560239687929429,0.478794795990648,0.481465687864284
-600,grasp,12m,PO,0.654946719174842,0.567178480482567,0.536751598045114,0.487116523046981,0.494055834481134,0.433638098098702,0.532295667109753,0.508681857683884,0.513951370750811,0.567589995834328,0.601228857411591,0.497483735514583,0.518327794219606,0.460945745107147,0.498411736038856,0.473302057312048,0.56283779680151,0.478090831218467,0.483524911729252
-590,grasp,12m,PO,0.65203987461321,0.567528326655437,0.538319972407346,0.484882691694252,0.494646110411232,0.431920273113662,0.533990163836483,0.508941456953594,0.519704053395562,0.57078400963731,0.606765806284401,0.493755099711809,0.517876788382269,0.462699518376275,0.503278450912501,0.473323247894552,0.565557775518869,0.477707611524728,0.485284136617677
-580,grasp,12m,PO,0.649329683223203,0.567494575197737,0.539685198577091,0.48319302020013,0.495245611441798,0.430368706260993,0.535826798457076,0.509831397090274,0.525184406334891,0.573771303966047,0.611129817362208,0.489913083565156,0.517649069526267,0.46413692751935,0.508425124870141,0.473434281584588,0.568082903956418,0.477708760624572,0.486895740766819
-570,grasp,12m,PO,0.64697830818117,0.567362183017791,0.54098628893698,0.482189662244008,0.495861163859248,0.428689578857302,0.537720206475201,0.510701697219251,0.530352812375004,0.576691989683836,0.614188902206484,0.485837038085942,0.517568136339381,0.465061435172261,0.513380846387035,0.473199343487068,0.569881573283551,0.478282937043697,0.48843659457048
-560,grasp,12m,PO,0.644884017849211,0.567122796210615,0.541947514979812,0.482063284781416,0.496696169446965,0.428205980502821,0.539579152219439,0.51137808646677,0.535184479779413,0.579708211049254,0.616516682567603,0.481746367990334,0.517371080428418,0.46582847501646,0.517974304766356,0.472688815180212,0.570932120873565,0.479315036513234,0.490075068896708
-550,grasp,12m,PO,0.643266356750739,0.56682553424141,0.542424825478723,0.482720446505639,0.497777218219193,0.428239017813189,0.541310573563187,0.512170169899879,0.539854929790568,0.582702475454843,0.618292106494545,0.477602755782059,0.517315723469864,0.466417109313633,0.522216231224355,0.471717131613966,0.571539601249166,0.48033473954347,0.491957083037199
-540,grasp,12m,PO,0.642202332762418,0.566325148604047,0.542256585749918,0.484051611537096,0.499169675129273,0.428473325276795,0.542822077519611,0.51343557886282,0.544483567331872,0.585504714389467,0.619582438722955,0.473540620487037,0.517367506679481,0.466536533514016,0.526345102617788,0.470339554064487,0.571687261743202,0.480908675551854,0.493842496065921
-530,grasp,12m,PO,0.641659006594756,0.565690332567193,0.54157990266903,0.486150980920644,0.500457127495718,0.429454933359545,0.544028916118061,0.514701925668954,0.548607237521342,0.588214646248477,0.619830112179693,0.469644428293576,0.517893070567949,0.466449562705988,0.530497946407585,0.468535964673562,0.571027277196086,0.480920997085029,0.495714059807278
-520,grasp,12m,PO,0.641279599936009,0.565130760814097,0.540374566101098,0.488663798890754,0.501263032375093,0.431015115301819,0.544950869189657,0.515604477045862,0.552249462631931,0.59077858306816,0.619585409738451,0.466269784157892,0.518843481261258,0.466117916383162,0.534571481633819,0.466099110679585,0.569751752004645,0.480422821585267,0.49758911897029
-510,grasp,12m,PO,0.640944633267811,0.564736255426117,0.538624607932379,0.491130352288303,0.501663408811288,0.433164429551923,0.54549656069123,0.516205875678636,0.555985060729911,0.59309090551031,0.61911187143468,0.463720872593809,0.519863591976305,0.46526122167807,0.538378909540459,0.463280961843858,0.568249613128041,0.479429980029441,0.499934883151559
-500,grasp,12m,PO,0.640869897097144,0.564593035661956,0.536344616791573,0.493755346086368,0.502001489593723,0.436146296527771,0.546352539222392,0.516550993572143,0.559514644361565,0.595110733365272,0.618733627697192,0.461916349507381,0.520876129823525,0.464116517455483,0.541730690059312,0.460170317045702,0.56671248156413,0.478220672487441,0.502960012831273
-490,grasp,12m,PO,0.64098976517046,0.564645690829389,0.533820894974776,0.496652409446118,0.502241281389413,0.439352054940198,0.547595545063872,0.516473154606745,0.562713303691726,0.596732083465346,0.618629114370036,0.460685842326598,0.522013357082455,0.463227199019702,0.544389745220962,0.456014970904514,0.565758475846243,0.476863544945989,0.506193208066639
-480,grasp,12m,PO,0.641280879572483,0.56461373683352,0.530604886042334,0.499848237052638,0.502066294241986,0.442210184686899,0.549168996860882,0.516112181894274,0.565699052899308,0.59795895739795,0.618578846591827,0.459896577900198,0.523423987572402,0.46267595904793,0.546416547451027,0.45157291371872,0.564948963199609,0.4755441615464,0.5096099031049
-470,grasp,12m,PO,0.64148427622003,0.564270952603443,0.526878803520413,0.502957488859037,0.501240866019834,0.444243732487553,0.551041802151497,0.515400581230696,0.568409138016619,0.598667753126821,0.618635316955133,0.45935127229009,0.524991509511284,0.46249133649844,0.547703076259583,0.447973285498541,0.564552160669841,0.474379850968906,0.513068182083067
-460,grasp,12m,PO,0.641665402979433,0.563725379928034,0.523008087910164,0.50563659888425,0.499994886591275,0.445535339155544,0.552725081064932,0.514168752069104,0.570602433540367,0.598569997046497,0.618363065511669,0.459106216521817,0.526909915522709,0.462916679591132,0.548208108267797,0.44501002814614,0.56489126126912,0.473087393023978,0.516506287745234
-450,grasp,12m,PO,0.641885734601393,0.56314751437898,0.519379693601514,0.508102243124216,0.498292887230148,0.446192735668377,0.553876354085604,0.512416935948018,0.572227718053067,0.597541844039889,0.61785320308635,0.459142159524856,0.529114531666159,0.464022036657879,0.548116856729847,0.44238069870077,0.56579466218871,0.471214439201408,0.520262156941739
-440,grasp,12m,PO,0.642294639522283,0.562438720723613,0.516217986921041,0.510044449971112,0.496307945391456,0.446027584346792,0.554677164211998,0.510116922945551,0.573082756597896,0.595616801530521,0.617191095854303,0.459549491845768,0.531626671043943,0.465258318491645,0.547630261312346,0.440188216045755,0.567183358655734,0.469072664497181,0.524411949757289
-430,grasp,12m,PO,0.642670449386409,0.561413513169654,0.513624609288969,0.511215723107954,0.494623049662532,0.445200858049145,0.555703629540808,0.50729961896066,0.573503073897339,0.59314647243009,0.615612464573476,0.46049730523975,0.534170240423696,0.466478615332161,0.546931166488155,0.438654203782832,0.568817195251536,0.466696322011736,0.528665226653267
-420,grasp,12m,PO,0.643146216816647,0.559718578938004,0.511576708931506,0.511916706300594,0.493394412437679,0.44393651248612,0.556768184341891,0.504627892864245,0.573236513900782,0.590209901293179,0.614281498770012,0.461580099566381,0.536831182598468,0.467676780500318,0.546125518219064,0.438001688308228,0.570738447290339,0.464108514305081,0.532851348334737
-410,grasp,12m,PO,0.643701301483832,0.557238662310056,0.509756398106516,0.512738085070481,0.492088526842248,0.442289734302967,0.556777149594666,0.501764492637931,0.572381113458806,0.586977148343134,0.613368800109184,0.462779321208839,0.539247193203371,0.468792143185935,0.545406513725689,0.43915943465286,0.572797960712051,0.461398032893805,0.536844095911567
-400,grasp,12m,PO,0.644152205818553,0.554130116134503,0.50786799907011,0.513803778465386,0.490878707247353,0.440243096073656,0.555624042041863,0.49884270128791,0.57144142381799,0.583398539089731,0.612389509196729,0.464067540327829,0.541739539466576,0.469807572518759,0.544831647296535,0.441446632181526,0.574559491644924,0.458695673814315,0.54104265821213
-390,grasp,12m,PO,0.644338462980158,0.550677360444161,0.505980914660566,0.514715201114922,0.489462218856982,0.43809932660724,0.553349294142039,0.495886452528053,0.570872239460456,0.579917523061088,0.611244182816126,0.464990800956526,0.544217219834908,0.470473832908254,0.544160738334414,0.44432671660027,0.57599042769988,0.456137168039752,0.54504048486008
-380,grasp,12m,PO,0.644379973781594,0.547383027931545,0.504239386117732,0.51557008594107,0.487846184715142,0.436283205518724,0.550011022318718,0.492781007443115,0.570496439876676,0.576581852932679,0.609693705869623,0.465587808017066,0.546647171118879,0.471426039035847,0.543113315254098,0.448436988248951,0.577528779116481,0.453522050458805,0.548766073665195
-370,grasp,12m,PO,0.644352724486281,0.544913198889479,0.502789949709214,0.516841793874412,0.485898922363886,0.435310536895414,0.545695836564145,0.489254987504256,0.570103398171248,0.572849330989898,0.60737594223702,0.465823978857594,0.548904143695538,0.472838802819759,0.542452740538572,0.454052831251637,0.578992649246234,0.451015523304931,0.55161512392191
-360,grasp,12m,PO,0.644084287600782,0.543066794207036,0.501330639150806,0.517773790154049,0.483723535027138,0.435005621879462,0.540073136306821,0.485332962790235,0.569646829169448,0.568946778252756,0.604028811283705,0.46573402234527,0.550970999789397,0.474493257216018,0.541873445263363,0.459559352023816,0.580588020444994,0.448222731492818,0.553748947644759
-350,grasp,12m,PO,0.643303861425507,0.541390662856506,0.500184651729405,0.518171199406772,0.481266069757865,0.43530705916297,0.533867202685912,0.48065147198453,0.569166143669082,0.564842608164171,0.599657075357681,0.465174597298107,0.552838874058856,0.476530952963908,0.541680072493265,0.464540514164466,0.582888063166125,0.445364226234897,0.555272359171265
-340,grasp,12m,PO,0.642137181734328,0.53986220434207,0.499667843225519,0.517957202791902,0.478588080843319,0.436409815531861,0.527492980409761,0.475409975091243,0.568237911923067,0.560795059851091,0.594658348349284,0.463985183818493,0.55410081517991,0.478891064170853,0.541853267595163,0.469070032651284,0.585375548095973,0.442422026204254,0.556441573419986
-330,grasp,12m,PO,0.640653433317313,0.538758343113902,0.499575603476461,0.516688806036587,0.476008825541569,0.438317316326062,0.521266097013928,0.469884294438296,0.566776296146947,0.556828395067608,0.589472797310765,0.462305437630707,0.554638234290912,0.481241980448315,0.542361293785186,0.473608655438676,0.588089569881433,0.439714753978697,0.557237192298333
-320,grasp,12m,PO,0.638765272820326,0.538191330547674,0.499203594992951,0.515155478038642,0.473730239196845,0.440887142792557,0.515429817055925,0.464184110250047,0.564838454533461,0.552985000570026,0.584281819900731,0.460325088638669,0.553942909549035,0.483451648398106,0.543112438180953,0.477466723022694,0.590813519101904,0.437395940433913,0.557857064698721
-310,grasp,12m,PO,0.636270473035731,0.538086540241585,0.498508445351739,0.513236944430813,0.471959395920297,0.443840709793351,0.509938834290517,0.458428775229676,0.562822521690425,0.54925113954771,0.579151916346156,0.458476990135852,0.552079356456335,0.48528834290371,0.543667588524515,0.480435082164717,0.593334777087932,0.436168391581212,0.558335788320426
-300,grasp,12m,PO,0.633472074138089,0.53811454404011,0.497477760143308,0.511300307328875,0.470884057870634,0.447267154527438,0.504840271819554,0.452512818942275,0.560881996661845,0.545768509311758,0.574202372667953,0.457152576258097,0.549974144083266,0.486563397543374,0.543959278911154,0.482650522473769,0.595538336605906,0.43597552530701,0.558754634274341
-290,grasp,12m,PO,0.630460815621631,0.538017904282335,0.496195236675695,0.509448609654768,0.471218232149481,0.451181733530024,0.500253407989683,0.446417760582302,0.558993705095276,0.542897614626417,0.569898882363941,0.456358881871094,0.547923022003363,0.487072742817091,0.544348501903994,0.485073409166982,0.597251068551286,0.436626151718636,0.558921358053014
-280,grasp,12m,PO,0.627258568769294,0.537747680056636,0.494689260185778,0.507890248729042,0.472418471485599,0.455887118998853,0.496129857845283,0.440396400255322,0.557004807996107,0.540184699698513,0.566163253675913,0.456059149961635,0.546162137162823,0.487292855434417,0.544898941276836,0.487906101202393,0.598570844263278,0.438286786818923,0.558991007142853
-270,grasp,12m,PO,0.624003995724812,0.536933071174922,0.492917483051017,0.506875006890146,0.474162012070589,0.461266561945742,0.49259961182578,0.434743743061202,0.554832626639919,0.537557791787963,0.562459102656942,0.456276901177757,0.54472430499416,0.487408004639971,0.545422898558095,0.491378002567139,0.599137663044341,0.440622760047045,0.558964024018349
-260,grasp,12m,PO,0.62066782093326,0.53579116978283,0.490570335028843,0.506935552926386,0.476489527931606,0.467240078412959,0.490249916416624,0.429551622250495,0.552709556871879,0.535150956102043,0.559256244247474,0.457144051351806,0.543958772787802,0.487147407102834,0.546045301490675,0.496469847698043,0.599263636043448,0.443528940984421,0.558717756945822
-250,grasp,12m,PO,0.617336370553148,0.534184416366757,0.487338042201926,0.508325458809835,0.478975491380338,0.473589775980892,0.488546975035039,0.425390872433329,0.550848006823413,0.53311045924602,0.556835656955019,0.458570575143861,0.543976503808785,0.486699358344435,0.547182444581785,0.501895997696146,0.598983151215384,0.446782833883498,0.558315565417369
-240,grasp,12m,PO,0.613976492328287,0.531866497906416,0.483709123062718,0.511143068184174,0.481437317286794,0.480288347087972,0.487184256969767,0.422009389987643,0.549146604482905,0.531328574936823,0.554995443787915,0.460567856582831,0.544548786170204,0.485981941634949,0.548566253389932,0.507325120905727,0.598336991329581,0.449993132752606,0.55780763375499
-230,grasp,12m,PO,0.610693933141686,0.528974211250388,0.479337446594051,0.515270383135152,0.483969915325252,0.487157874167155,0.486751791941362,0.419517531048096,0.54764785354583,0.530308070738706,0.553681177383677,0.463322408718833,0.545745535647893,0.485121044330621,0.550178534494263,0.512573347258291,0.596885769834045,0.452970928959602,0.557181157445653
-220,grasp,12m,PO,0.607388445277687,0.525634987642686,0.474483586569933,0.520629020058692,0.486620660564859,0.493745605278314,0.48705394460822,0.417943255182584,0.546271378109252,0.529596170625983,0.552321251293344,0.466476515745969,0.547442485286047,0.484405345019174,0.55170750344197,0.518042995918658,0.594513977774839,0.455890162980238,0.556766533273625
-210,grasp,12m,PO,0.604098032314204,0.52155151368941,0.46953017833315,0.526061359568102,0.489737981027222,0.499713401545309,0.487738057322244,0.417119099975104,0.544668347627206,0.52895012092693,0.550765934062087,0.470000233514092,0.549798462972539,0.483930432608257,0.552706809404955,0.523806156385922,0.591229625062651,0.458764024307726,0.556655181902091
-200,grasp,12m,PO,0.600838722145914,0.516765000708656,0.464524459219605,0.531522133165552,0.4931471441011,0.50561044011807,0.489121174890081,0.416820177172853,0.542582447712439,0.528508658092374,0.548990716313396,0.47372298546827,0.55278283169574,0.483751787833306,0.553788645126492,0.529782784175264,0.587042665477585,0.461430797344051,0.555464465631518
-190,grasp,12m,PO,0.597705795714899,0.511756216877695,0.460423005938217,0.536504398078235,0.496736103153356,0.511433348765097,0.49082858549622,0.41723943012951,0.539611347144231,0.528332336562764,0.546950698133142,0.4773427975948,0.55623288942086,0.483597733710629,0.554929875090957,0.535304960060732,0.582299073332358,0.463972267741225,0.553946255402861
-180,grasp,12m,PO,0.594836817469418,0.506901090813407,0.457225749203077,0.540617579662157,0.500205672013716,0.517093260925891,0.492444676226881,0.41866079494614,0.536166225994644,0.528014535969062,0.544827565820485,0.480884083660799,0.559735958406076,0.483292484345168,0.555748646962145,0.539782012506759,0.577240966708331,0.466392363702065,0.55215153394087
-170,grasp,12m,PO,0.592312506829296,0.502120265445762,0.455164189658204,0.54427788238513,0.503670633577973,0.522360817888007,0.493824145410777,0.421491632794875,0.532507312542246,0.527553747162268,0.542343058383459,0.484211004257615,0.563119860121475,0.483104534618262,0.556544970559705,0.543817603680316,0.572025280722067,0.468869494629419,0.54958307480281
-160,grasp,12m,PO,0.589977348629274,0.497235314798277,0.454813322979632,0.548064446728397,0.507217989170846,0.527107209359705,0.494448606341356,0.425205624640663,0.528456172194841,0.526780474279904,0.539648552032613,0.487341317110847,0.566087726450903,0.482967030750185,0.557069974812617,0.547524258593429,0.56682923595877,0.471272864231892,0.546418625613527
-150,grasp,12m,PO,0.587689346932588,0.492198096280274,0.456225019863732,0.551576734560399,0.510855509094028,0.531542100506431,0.493908921054309,0.42935479448295,0.523901408210605,0.525225119307524,0.537188656594063,0.490169368399046,0.568779515148132,0.482639677885664,0.557295571037691,0.550931859961728,0.561733267405782,0.473614531372149,0.542423032841237
-140,grasp,12m,PO,0.585422218417699,0.487438636685282,0.459177300749587,0.554785532019895,0.514549264102408,0.535149612846448,0.493647517720811,0.433808939284338,0.519043838035225,0.522989890284858,0.535252924706188,0.492645028355384,0.571486404553439,0.48222538290341,0.55728989249714,0.553765702576754,0.556722718281252,0.475681394480442,0.537965400111539
-130,grasp,12m,PO,0.583166438348015,0.482958939210866,0.463675237592973,0.557672236662783,0.517750652689015,0.538168952163226,0.493579836556784,0.438673836667639,0.514451462552917,0.520693507064599,0.533760162924042,0.494775336646667,0.574348780987074,0.481901561870336,0.557105644760189,0.555235358436401,0.551341928860949,0.477155825427139,0.532933792746004
-120,grasp,12m,PO,0.581143579964164,0.478600719372638,0.469551332514425,0.56012792921225,0.520657213238167,0.540974483566837,0.493389521038537,0.443968207766888,0.51002065118026,0.518111651853025,0.531731506618673,0.496745786727434,0.577244787730959,0.481657603429493,0.556666920953735,0.555040646273613,0.545941080691903,0.47816250568951,0.527264479589987
-110,grasp,12m,PO,0.579399237233311,0.474767207973985,0.476709460555853,0.562134985013272,0.522848722093996,0.543635938295607,0.492669286594747,0.450164946737554,0.505514887293037,0.515753450380308,0.530604572926916,0.498444407108993,0.579917800163816,0.481476288443676,0.555857093904955,0.553942758138108,0.541022352311244,0.478892911446591,0.521345361977864
-100,grasp,12m,PO,0.578370814441138,0.471396807265624,0.484594918876695,0.56386444070583,0.524308354723459,0.546002398318219,0.492126109856807,0.457434403031931,0.501011145200054,0.513755582611111,0.530015335323129,0.499646371832255,0.582319046373187,0.481274336141754,0.554686295717722,0.552075329173703,0.536823062688076,0.479361607893599,0.515448239313644
-90,grasp,12m,PO,0.578303985636534,0.468646950574578,0.492726304479286,0.565428145767342,0.525379384032071,0.548406251776719,0.49177168906185,0.465133421668314,0.496598200005777,0.512200492708532,0.529539971695837,0.500428562092818,0.584719240196319,0.481054938420498,0.553253338829201,0.549160262713808,0.533257280986183,0.479608304119751,0.509556410613382
-80,grasp,12m,PO,0.57897003358747,0.465909214168833,0.500987945819886,0.56747017212001,0.525806833023125,0.551174242038245,0.491648679591316,0.473253165640502,0.492922795620628,0.511589463386261,0.529137028384533,0.500865453182909,0.586811840351304,0.481151690130071,0.551441296474509,0.545253383463392,0.530206394855202,0.479494271363946,0.504397464176766
-70,grasp,12m,PO,0.580287222808444,0.463476576149147,0.509102203127986,0.570112227318641,0.525545521053383,0.554212297496984,0.492297640291904,0.482050085145015,0.489569292438937,0.51173156169899,0.528571287828337,0.500923684771863,0.588686087167089,0.481497168226551,0.549388191200245,0.540859015130406,0.527741288089737,0.478873391084302,0.499374127778133
-60,grasp,12m,PO,0.582148077868525,0.461315025524349,0.516920165880465,0.57337743487718,0.524823805604385,0.557471339687777,0.493537831679738,0.491363067750442,0.486070953465472,0.512508317321632,0.527600026158186,0.500542471483541,0.59046227810826,0.48231586023401,0.547543452699806,0.535766972091211,0.525719695966046,0.477905740175716,0.494584191011781
-50,grasp,12m,PO,0.584727872762096,0.459483849908819,0.524367287060968,0.576922997955916,0.52331873355035,0.560896157747927,0.495281821946708,0.501084013025329,0.482900131920046,0.513775857083837,0.525895838821558,0.499464536025938,0.591896922826914,0.483784865938179,0.545905599603101,0.530846001011247,0.524067663946286,0.477156494384529,0.490011424329256
-40,grasp,12m,PO,0.587739645794172,0.457874444215438,0.531399578195576,0.580418183284708,0.521694454584913,0.564280177115444,0.497596895344994,0.511306209725738,0.480440787146532,0.514598819638386,0.522355797827595,0.497744535963154,0.592401648442082,0.485966455699969,0.544831807334264,0.526329221270686,0.522777439050542,0.476650061451676,0.485532389422901
-30,grasp,12m,PO,0.590843472817798,0.456435426908772,0.537403490066852,0.583643231729354,0.520106738469821,0.567036519059732,0.500512994477431,0.521792789900032,0.478975384146127,0.514833857960903,0.518090328087052,0.495755380729508,0.591933964349138,0.488929330513126,0.544492070946657,0.521981980762409,0.522311061695334,0.476499212221509,0.481419956929349
-20,grasp,12m,PO,0.593864380501046,0.454995289548431,0.542421640682271,0.586074296074971,0.518297709651979,0.569499523994287,0.504222597720412,0.532249257409769,0.478397436701462,0.514335397681643,0.51375328058567,0.494224754206667,0.5906815398533,0.492396344100135,0.544128329724085,0.517703641896421,0.522546893850111,0.476939282247596,0.477501754499133
-10,grasp,12m,PO,0.596624330081365,0.45375307057045,0.546609615528359,0.587179010254726,0.516075829304554,0.57149048144014,0.508912914166622,0.542790556339847,0.478613682370046,0.513278566748157,0.509626876993925,0.49270118337534,0.588558394707333,0.495958141461857,0.543454984126472,0.51391314910091,0.523126640614651,0.47810640362524,0.473626412356498
0,grasp,12m,PO,0.598891567573531,0.452635798915772,0.550401123526077,0.586660738703428,0.514027395837227,0.573281167469714,0.513883402103378,0.553160948078155,0.479644450651198,0.511690793630821,0.506243625080159,0.491423985245466,0.585661074236164,0.499462322342861,0.542133009116313,0.510837950585311,0.524118294446271,0.479743030865587,0.469707530198061
10,grasp,12m,PO,0.600501422212874,0.451660733063413,0.553871520259915,0.585607990647584,0.512003675532965,0.574966550360537,0.518928736027093,0.563280795528742,0.481515240257961,0.509869610037316,0.503636915853513,0.490404194428678,0.582019593911251,0.502826737014387,0.540011471219867,0.508720361933204,0.52529829408466,0.481756452950866,0.465670635225954
20,grasp,12m,PO,0.60134643804619,0.450357403723835,0.557401050513191,0.583906153239538,0.510082014054676,0.576741465339045,0.523961696632434,0.572843007393618,0.483931640464239,0.508019025972863,0.501972804907464,0.489666346876237,0.577938907159379,0.506026451429427,0.537463615262115,0.507352639921842,0.527180502602161,0.484112608184853,0.46155336946076
30,grasp,12m,PO,0.601643904454407,0.449209017998315,0.561226887259651,0.581280640583396,0.50832550862002,0.578666344299885,0.528914652376176,0.582124923672938,0.486760621577074,0.50625272811095,0.501163867635352,0.489384024602632,0.573307221667734,0.509168421121645,0.534357407853834,0.506514256744961,0.529308521901114,0.487248094909929,0.457288822607789
40,grasp,12m,PO,0.60135977203165,0.447835773930321,0.565181115708141,0.578077742796619,0.507155481064157,0.580237192670476,0.533775736832777,0.590819583050575,0.490233778520985,0.504484908011126,0.500699309970244,0.489369544294403,0.568101187838969,0.512045285573011,0.530699341509658,0.505808202240377,0.531067180988998,0.490861881705119,0.453182190417744
50,grasp,12m,PO,0.600485530508888,0.446358707523821,0.569367192966141,0.574802858356434,0.506167440867513,0.581150477035234,0.538479083816522,0.599099431094649,0.494592439607382,0.502603957150521,0.500371702505729,0.489514511990674,0.562208070478644,0.51451206427009,0.526349661236392,0.50479956550752,0.532321550605212,0.494357663409591,0.448878733406027
60,grasp,12m,PO,0.599084584987696,0.444916318567746,0.573795090409219,0.57170085021574,0.504819991941379,0.581392917758449,0.542973001017183,0.607001799200147,0.49943633597592,0.501248488809453,0.500018153473061,0.48974575444838,0.555929628981351,0.516388785682286,0.521768209828596,0.503698703021068,0.532858825291117,0.497768221760032,0.444250639891739
70,grasp,12m,PO,0.5972366936212,0.443553361353884,0.578100520082466,0.569080664618666,0.503327004657216,0.58091160067677,0.547058749332647,0.614510885007043,0.504717258613429,0.500015799278662,0.499457382440963,0.490378601233828,0.549472997235506,0.517743822429956,0.517190982150855,0.50338868202184,0.532394349371174,0.501600008182609,0.439424758941068
80,grasp,12m,PO,0.595168369603679,0.442441804088356,0.581938753938829,0.567019086113475,0.501532454009975,0.579296102413001,0.549687402031082,0.621641557497137,0.510638946317931,0.499038210680326,0.498178038167713,0.491572409565016,0.542973624941429,0.518566272517826,0.513090834756983,0.504291811188139,0.530669556589914,0.505698023368341,0.434727892254262
90,grasp,12m,PO,0.593079396942645,0.441356517071257,0.585244771613115,0.56541062339885,0.499429582560478,0.576912692273466,0.551918321676914,0.628202323989306,0.51657106602732,0.497913994349013,0.496745446113239,0.493206452283451,0.53664659563806,0.518947924962723,0.509302551803671,0.506322391833429,0.527985402867703,0.509464074464672,0.430898849436825
100,grasp,12m,PO,0.590827759953681,0.440141378145274,0.588242499387468,0.564365002316167,0.497087443749212,0.574443864035068,0.553957561951097,0.634237324712682,0.522388456896687,0.496763634519569,0.495498725442034,0.495321273229405,0.530875907218418,0.51872338252929,0.505498671136682,0.507710621532389,0.525106009831283,0.512563511749122,0.428137235302782
110,grasp,12m,PO,0.588216811539706,0.438981743697446,0.591005703154468,0.563823035600939,0.494376649621666,0.571895947107382,0.55571178197042,0.639338330950697,0.527983625653285,0.495694566374597,0.494358698298217,0.497702327297356,0.525670014857595,0.517781483272426,0.501842362875698,0.508390957638191,0.522617298628948,0.514745145976396,0.426283155773098
120,grasp,12m,PO,0.585413763136275,0.437743548928721,0.59343483212538,0.563640483748786,0.491381553961813,0.568744024529608,0.557188026404207,0.643672252959848,0.533331395838587,0.494688642218555,0.493119219524826,0.50019333082399,0.52098955919631,0.516079062671124,0.498600165000668,0.508768831276047,0.519758828178292,0.515821119532666,0.425492604473438
130,grasp,12m,PO,0.582444372673213,0.436231646516841,0.595378366953709,0.563510669467268,0.488176408891545,0.565807925514327,0.558584763544638,0.64722136605279,0.538173762618677,0.493755966006259,0.491715843658669,0.502582152515729,0.517154299719978,0.513779304097837,0.495577803528751,0.508488836671064,0.516547126182388,0.516015837550316,0.425507023986295
140,grasp,12m,PO,0.579493152330639,0.434664682154131,0.596552146374718,0.563292054596421,0.485068831086403,0.563090775994446,0.55940989864143,0.649697576710745,0.542833637703321,0.492987514924936,0.490228795103103,0.504370899519393,0.513948725612788,0.511168243362847,0.492540386295332,0.507633000191209,0.513362911508472,0.515471651205474,0.426484623923959
150,grasp,12m,PO,0.576791884364244,0.433016222310553,0.597024963614246,0.562972234933866,0.48164304081281,0.560832217762627,0.559231719159978,0.651136274243882,0.548324044030839,0.492098306663013,0.488480413282173,0.506132498213847,0.511544479674026,0.50847933959652,0.489517202660855,0.506823931195294,0.510490144446946,0.514073542661531,0.428330489177162
160,grasp,12m,PO,0.574344514637581,0.431618088013784,0.596894620869979,0.562244330664558,0.477836652405463,0.55889822414994,0.55848162189757,0.651630412741021,0.554465866143595,0.491184595102768,0.487111810468308,0.50780722653505,0.509793304932058,0.505687687263501,0.486967036611013,0.505984848538182,0.50800325122689,0.512254913378021,0.430489955844413
170,grasp,12m,PO,0.572261376698352,0.430193900671446,0.595738894101624,0.561211178162328,0.474343315852541,0.557123728996665,0.558703300041487,0.651453146253263,0.560808107851821,0.490246365248579,0.486394485624155,0.509364687253285,0.508309755685689,0.502746361941258,0.48517358448719,0.50525743741656,0.505961971618174,0.510180652857577,0.432331296269044
180,grasp,12m,PO,0.570440538457193,0.428701808738311,0.594150374934004,0.55979323924415,0.47072195292687,0.555799767267656,0.560031033031777,0.650313139837107,0.567431655729908,0.489032142027904,0.486398134780887,0.510891704975342,0.507088270471422,0.499875246643234,0.483943462504891,0.504858885991986,0.504292703014623,0.5076635248249,0.433996237804454
190,grasp,12m,PO,0.568817223245622,0.42765809583037,0.592044161721111,0.557875029725753,0.466633893472097,0.554823105336242,0.561593543030089,0.648178227564401,0.574030753462535,0.487836251901193,0.487194605480838,0.512521028318502,0.505935296423322,0.497120208018211,0.482904817319989,0.504790727947414,0.502743052458487,0.504712510798648,0.435445722027349
200,grasp,12m,PO,0.567163288494478,0.427208433440139,0.589451104939035,0.555350829831493,0.462349445929677,0.553984079905507,0.562592350351627,0.645352196913975,0.580579493247377,0.486929402033959,0.488842807765899,0.51438916353205,0.505017382205309,0.494612576470243,0.481928490482456,0.504993687821976,0.501270856863203,0.501684030259913,0.436937952495862
210,grasp,12m,PO,0.565467152332322,0.427571900882046,0.586820791754184,0.552216099206771,0.458224073386293,0.553476202848229,0.562754092845517,0.641816902689929,0.587020188838034,0.486079555796351,0.490609934061013,0.516349205709955,0.504499153462429,0.492378279598014,0.481117408169659,0.504547149774775,0.499999119195805,0.498430671381756,0.438707357752373
220,grasp,12m,PO,0.563817719068636,0.428654233923861,0.584773386275578,0.548173148085355,0.454059746941261,0.553196400095904,0.562023874552499,0.637805167559582,0.593140366381449,0.485124303345483,0.492577686374794,0.518428175580355,0.504157104040899,0.490362378998798,0.480476864947842,0.504080218712354,0.498994795545078,0.495161871091644,0.4408044511471
230,grasp,12m,PO,0.562342051526203,0.430444995825268,0.583078562377787,0.543295994471104,0.449529274925191,0.55291755501733,0.561145145562913,0.633288389763247,0.599215809287743,0.484144012531162,0.494582512322967,0.520377949427935,0.503654374473538,0.488658014834403,0.479787721550072,0.503845818157939,0.498566748814904,0.49191845224678,0.442765698304022
240,grasp,12m,PO,0.560770858564232,0.432676855023142,0.581058166467496,0.537888279052461,0.445391482228143,0.552287155038357,0.560853497035119,0.628590111961871,0.605278108806331,0.483471461265688,0.496937672398294,0.522276781652667,0.503279569773315,0.487453967063657,0.478692524457877,0.504123758862371,0.498469648397772,0.488714381120735,0.444524737184283
250,grasp,12m,PO,0.559036265417365,0.435466212944051,0.579138897614176,0.532019904446213,0.441360492317604,0.551391503494327,0.560708388798199,0.62356521768194,0.611297070028458,0.482883419078685,0.499784679167855,0.523840722847932,0.503314742530692,0.48638994117879,0.477480509496738,0.505137271527019,0.498570777506543,0.485436644228616,0.446343485503531
260,grasp,12m,PO,0.55714462079683,0.438765028450242,0.577013470305909,0.526019042965747,0.437227857409911,0.550477739086197,0.560452557766656,0.618492125782721,0.617251262307993,0.482544512936292,0.502671208082613,0.525126983868792,0.503546493026239,0.485505357623089,0.476334493336569,0.506339627051899,0.498891976776787,0.482343435979176,0.448374362838738
270,grasp,12m,PO,0.555372949499793,0.442337780111686,0.574469225879837,0.519898211915453,0.433028523271194,0.549529598123609,0.560210723781371,0.613508754786114,0.623148562626999,0.482182866913377,0.505201090330961,0.526139932754811,0.503719251771061,0.484422834966601,0.475356366914588,0.507395193360821,0.499255981605132,0.479487897634365,0.450459212715974
280,grasp,12m,PO,0.553928940181734,0.446288272615748,0.571446505351719,0.513867704432841,0.428761963624439,0.547703267998576,0.560185163970131,0.608601977943539,0.628947026713373,0.48167226051167,0.507104990324029,0.526884133198879,0.504111501513509,0.483350251605913,0.474808408085018,0.508680549545417,0.499447933948946,0.476480978349968,0.452734382448179
290,grasp,12m,PO,0.552873168465304,0.44999702413075,0.568105625691667,0.508282075835704,0.424625323983861,0.545775100214661,0.560542627019465,0.603884508891625,0.633832588267159,0.481260616778922,0.508005863246513,0.527581222361768,0.505222359848484,0.482549081458232,0.474399597961284,0.509934307672617,0.49950354505533,0.473378293052855,0.454839289618419
300,grasp,12m,PO,0.552230709661513,0.453336115884979,0.564425955633421,0.502782361439483,0.420751320636115,0.543671868285723,0.560807431487041,0.599358754446489,0.637705571057779,0.480926407966479,0.507802678869149,0.528301157517611,0.50708345404599,0.482290373277384,0.474193451303943,0.51043494016047,0.499865438939187,0.470442624339375,0.45693351028732
310,grasp,12m,PO,0.552017636871814,0.456345731501285,0.560356244271792,0.49774935445213,0.417004673913781,0.541305232125444,0.561000290235734,0.595236904807631,0.640823900339885,0.480732922393262,0.506787963657908,0.528947515075598,0.509506966263573,0.482171890124061,0.474033365878293,0.510953401592172,0.500238585587648,0.467867096142083,0.459117241639269
320,grasp,12m,PO,0.552167488423328,0.45892101991717,0.5562765487496,0.493848849753854,0.413668229333023,0.538818187309903,0.561300967846302,0.591613374148646,0.642965445892039,0.48056036764064,0.504814000184769,0.52938462935878,0.512339958728699,0.482020047446081,0.474083998682715,0.510779690053775,0.500857960946581,0.465881271896388,0.46140634283082
