Time,Condition,Age,ChannelPair,connect_overtime_LA_EEG_12_P04_CTS_MTH_chanpair_12m.mat,connect_overtime_LA_EEG_12_P05_CTS_MTH_chanpair_12m.mat,connect_overtime_LA_EEG_12_P06_CTS_MTH_chanpair_12m.mat,connect_overtime_LA_EEG_12_P07_CTS_MTH_chanpair_12m.mat,connect_overtime_LA_EEG_12_P08_CTS_MTH_chanpair_12m.mat,connect_overtime_LA_EEG_12_P10_CTS_MTH_chanpair_12m.mat,connect_overtime_LA_EEG_12_P11_CTS_MTH_chanpair_12m.mat,connect_overtime_LA_EEG_12_P16_CTS_MTH_chanpair_12m.mat,connect_overtime_LA_EEG_12_P17_CTS_MTH_chanpair_12m.mat,connect_overtime_LA_EEG_12_P19_CTS_MTH_chanpair_12m.mat,connect_overtime_LA_EEG_12_P20_CTS_MTH_chanpair_12m.mat,connect_overtime_LA_EEG_12_P21_CTS_MTH_chanpair_12m.mat,connect_overtime_LA_EEG_12_P22_CTS_MTH_chanpair_12m.mat,connect_overtime_LA_EEG_12_P23_CTS_MTH_chanpair_12m.mat,connect_overtime_LA_EEG_12_P24_CTS_MTH_chanpair_12m.mat,connect_overtime_LA_EEG_12_P25_CTS_MTH_chanpair_12m.mat,connect_overtime_LA_EEG_12_P26_CTS_MTH_chanpair_12m.mat,connect_overtime_LA_EEG_12_P27_CTS_MTH_chanpair_12m.mat,connect_overtime_LA_EEG_12_P28_CTS_MTH_chanpair_12m.mat
-1000,cane,12m,PO,0.435311400943712,0.415902860413952,0.398883571651415,0.507516126038872,0.483310201096537,0.544027372474736,0.506126000780989,0.53014592646476,0.416567491286873,0.545723768032311,0.50911619904515,0.44026991163948,0.565070274412673,0.508792655803944,0.530423305451482,0.562627671740821,0.531789833668192,0.472451529357422,0.448119748357766
-990,cane,12m,PO,0.434282318104113,0.433907170402988,0.403968668727272,0.513257776113586,0.471302859644086,0.545643934167523,0.502715303479571,0.535446432100869,0.42442839541356,0.555762857761994,0.50448710234822,0.441529650657989,0.566313807002598,0.515706622120348,0.515158825002435,0.548209639618443,0.524478339679798,0.476991692626206,0.449085170449077
-980,cane,12m,PO,0.434971164797353,0.457696614559605,0.409505942061146,0.516700234519416,0.461033381135679,0.543764257774042,0.503811791394795,0.542440737636102,0.431438374458703,0.566596334351078,0.501121392113513,0.440195333018562,0.566022239282986,0.522494422484084,0.501465690053132,0.52886091701754,0.519513147828292,0.480568360969792,0.451768705923052
-970,cane,12m,PO,0.43631122526154,0.485103246029262,0.414361116303292,0.518466564062605,0.451835026118749,0.538514455042799,0.505952575605809,0.550194273698832,0.437412209309474,0.575790614030551,0.499584960161903,0.437318376234977,0.562609816932996,0.527405238497426,0.491740907197984,0.508511237622448,0.514008009253014,0.486268747701418,0.457616133943703
-960,cane,12m,PO,0.438545812382828,0.510088622359145,0.418570919942913,0.518851788280576,0.444571627735774,0.53031826450782,0.50590617105061,0.557658040612186,0.443415030729512,0.581428812226256,0.499850511478635,0.436465952947182,0.556569054134226,0.526469665293391,0.485879358409277,0.488957193995986,0.503541596611379,0.494642199227256,0.468266728842709
-950,cane,12m,PO,0.444416686863993,0.529907938715194,0.424531530822924,0.51712016250595,0.441844452409448,0.520207622022256,0.502539216215969,0.564161155265137,0.445075610133669,0.58439967472855,0.503082583884097,0.437095879511776,0.54992721738798,0.520846418310259,0.478489996739827,0.470926797657227,0.489949639025967,0.505285457860412,0.480313221919927
-940,cane,12m,PO,0.452269087066207,0.545367464818731,0.42692481658215,0.514516021173444,0.445231645815606,0.507631552165778,0.498598040890741,0.567777517953942,0.443559624041035,0.587344440216126,0.510740705840911,0.4384750018112,0.544951205952575,0.513464098490677,0.471129721053206,0.456565431485157,0.476961582723233,0.514900318417598,0.491579158753993
-930,cane,12m,PO,0.459124381114452,0.557714174395064,0.426824664412145,0.511577917567159,0.451445830971753,0.494657645202756,0.489326831615865,0.568957387612387,0.436304758200185,0.592044989729574,0.518909483157295,0.441551302519826,0.540609542577804,0.506730760931639,0.464517647761326,0.448127612972178,0.46901372955678,0.521153650572208,0.501780051314546
-920,cane,12m,PO,0.464387512653978,0.566758125084576,0.423136385048357,0.510410211695724,0.458421114932472,0.48335280870174,0.473111398965273,0.566984754364467,0.42885086120384,0.597431064772868,0.526312523423445,0.445418867947922,0.532969162109825,0.499658841613165,0.458242027376173,0.444571989092994,0.467059713371486,0.524922538787246,0.509975350703753
-910,cane,12m,PO,0.468944930015168,0.572689329380913,0.420375334300471,0.509452884140996,0.467523215284757,0.475363674321832,0.457446849748257,0.562045587012275,0.426182849722952,0.601392144321142,0.5319288724174,0.451011173010175,0.520555590816421,0.492482783717856,0.452579026488741,0.442237462265968,0.472105423440315,0.526119030461614,0.512958051331072
-900,cane,12m,PO,0.472560514955584,0.574556799973104,0.420245097590918,0.508250652243165,0.478553088082493,0.472166794212042,0.446479768869667,0.558343804325273,0.42814770184052,0.604194240849451,0.533859012220825,0.457707809756786,0.505851504018645,0.486623433583127,0.44871768482566,0.437484749782599,0.480659866298009,0.526130829036392,0.509045476468703
-890,cane,12m,PO,0.47606164323888,0.572007335370047,0.42214538298312,0.504933785840274,0.487816727292014,0.472729923974217,0.441889866337946,0.558067264937814,0.432322901717075,0.606075207772127,0.529626699601628,0.463328669048336,0.492033976875216,0.481450727336015,0.447361053143712,0.432659888776558,0.491900700469983,0.526409690435398,0.502210151449914
-880,cane,12m,PO,0.478311945675601,0.568069813940323,0.426586359630104,0.499721265034748,0.496339655984975,0.47503064130127,0.443169865864046,0.561172054376462,0.435141730440494,0.607180865564413,0.521343497919611,0.468202255804153,0.481615400020859,0.475977633303908,0.450377007248551,0.428206487547855,0.504855642850007,0.527086284515684,0.500669782076665
-870,cane,12m,PO,0.478254131977899,0.563562714724992,0.431515856773974,0.492153313367095,0.504655797975677,0.480652404716317,0.446564995588917,0.565909068036864,0.43694705544423,0.607879410856246,0.515019962955738,0.471997818067032,0.4782175832617,0.471328379515857,0.459032003061269,0.42309569356655,0.519793208916604,0.529283514684187,0.502060235564643
-860,cane,12m,PO,0.4750902260461,0.557331154244215,0.436410395813789,0.481397015547533,0.511488150619791,0.492788549048408,0.453885848285496,0.569899062361982,0.435904353744306,0.607927889394196,0.512198458161833,0.475876671895326,0.477457273190759,0.466607011649946,0.468994799557163,0.418701312203145,0.534368973844073,0.534568093154551,0.504613087472646
-850,cane,12m,PO,0.468685577013378,0.551539887194925,0.443744437454153,0.468674356167955,0.514782685969648,0.511394570222051,0.461513093945785,0.571500123859165,0.434376720359169,0.609950739292093,0.511433871636414,0.479888406640102,0.475771428713352,0.461724998072894,0.478862176446543,0.417415113034062,0.546776469338437,0.540328669029897,0.50654506417816
-840,cane,12m,PO,0.46113778070405,0.549672327138576,0.449596973166557,0.456902379082645,0.515490894346435,0.530003679705192,0.468931022801148,0.572147500567329,0.433101743126923,0.614342945922376,0.508764252726962,0.483431195024259,0.473038582921411,0.4574329831128,0.486692477111501,0.420158679688935,0.554314437902162,0.547762775454975,0.505523742713823
-830,cane,12m,PO,0.453668347300277,0.551307479829512,0.448497155523509,0.446671411942242,0.514870318896964,0.542816036596445,0.476982223963588,0.571170035937381,0.427788492217084,0.620143393416345,0.503744166496197,0.486570838381196,0.47227494062866,0.455127598973264,0.49243348973029,0.426691942868138,0.556761482185828,0.554406125083222,0.504469016951014
-820,cane,12m,PO,0.445792393880052,0.55433047179328,0.441420252504958,0.437618647656737,0.513991432859927,0.5509237558028,0.487717986282079,0.568948928908871,0.420091087045572,0.623358704026325,0.497993519528535,0.489198373685116,0.471128227012121,0.454569477376595,0.498349983141172,0.434580377167403,0.553829275975884,0.557885475767421,0.502537313220363
-810,cane,12m,PO,0.43624930765561,0.555953332337582,0.43244311399264,0.429491869886889,0.512152797743799,0.558994176752591,0.499986883653849,0.565124693520042,0.41628534305084,0.624574637190657,0.490231961542504,0.490412311912465,0.466964838413546,0.454772126447699,0.50558568194595,0.445609832883744,0.54361694391129,0.55752395124127,0.498221208549208
-800,cane,12m,PO,0.427773981430408,0.556531078436719,0.42427553162608,0.420786733067941,0.507737833457427,0.567474419903987,0.510807426004884,0.559262996438434,0.419603055278846,0.624917985818833,0.480117142870045,0.491124616252751,0.461283543608288,0.454914876703433,0.513888060231294,0.46098259339945,0.528547802901262,0.553805873394829,0.492339513548572
-790,cane,12m,PO,0.421838031065954,0.559358031516708,0.416691555238655,0.412733137846432,0.502606729833286,0.575204871252481,0.518702030429649,0.552996660685693,0.42330966519952,0.623397011827776,0.466429610563712,0.491460761379832,0.456787360650417,0.454137624281476,0.5231471839616,0.472006768292829,0.514835339188619,0.546840006015115,0.487531399061259
-780,cane,12m,PO,0.417507359621373,0.563050358752146,0.411955104047991,0.411119332384739,0.498242584799634,0.582789371623409,0.522736286957389,0.545286158676519,0.424507695745538,0.617715594232247,0.452470171130522,0.492881822856369,0.453304593840069,0.451710284146231,0.534771686123721,0.481773250251798,0.508754179102386,0.539518861290887,0.48496704121247
-770,cane,12m,PO,0.415323080616312,0.564096556338986,0.410654629785901,0.413412890727046,0.493071292803578,0.585579610951184,0.526012736526648,0.538987966009646,0.424796763096819,0.606837788281891,0.443805881425825,0.495588436708567,0.451424471752547,0.448373057088957,0.547297987423796,0.494321103328587,0.506216163681641,0.534305765260044,0.487687136407375
-760,cane,12m,PO,0.415060812449035,0.560775107363389,0.412543735932721,0.418480323337383,0.488529533781391,0.584434403965739,0.525140715696927,0.535535840729853,0.422305943903808,0.595360175929156,0.442922213339755,0.49780783387714,0.449970492678539,0.445447729129649,0.558795005405165,0.508810121042189,0.503015134620944,0.530152362432355,0.497742308224576
-750,cane,12m,PO,0.417147665662617,0.551345835267595,0.419517367830727,0.426464214091625,0.483967038844227,0.579541541194741,0.519374527405698,0.533595746992934,0.419595837819559,0.586870036300122,0.449635166617027,0.498247636254111,0.44687822841474,0.443465294012241,0.568035361111506,0.522247835379733,0.500346872209861,0.52500907223673,0.512676930489881
-740,cane,12m,PO,0.42054692155863,0.535569590065552,0.431862615851858,0.435501836943062,0.477475594565615,0.571462966070306,0.510882285430319,0.531896198597789,0.418391285961102,0.582470511886406,0.459686479962154,0.498379822340536,0.439710351623278,0.443095239867616,0.574832990339584,0.534414659598324,0.498925978883253,0.519890929473129,0.530205494706755
-730,cane,12m,PO,0.423933418537904,0.515636243360291,0.449722819044602,0.44671790327505,0.469742377638837,0.564352449540641,0.49972079375619,0.529600451705634,0.420689370940974,0.580504000213964,0.47098423047471,0.497748671818429,0.429163561230413,0.445711460176708,0.580079897042637,0.546008716654208,0.496268470141929,0.515818127376279,0.549621277662832
-720,cane,12m,PO,0.42734540077751,0.492637012584529,0.464407247674991,0.46047047179563,0.463040225485976,0.557475828048983,0.48547949796253,0.527085764107846,0.429485022163539,0.578878628773093,0.481014658539912,0.494685984851106,0.418560425742758,0.451109597176487,0.58142786392292,0.557424011159801,0.491029077983357,0.51095113881398,0.566772722507949
-710,cane,12m,PO,0.433959792277127,0.471379120864682,0.470974368209912,0.472815714060835,0.461747988564051,0.548636526121924,0.473223840548637,0.524450926904804,0.446431532571849,0.578487029286791,0.491406949226939,0.489140715528578,0.413087416491713,0.458705515701176,0.578166136465425,0.568358223986233,0.482445594874567,0.504725241698672,0.580332185224832
-700,cane,12m,PO,0.442734386771374,0.456733797272502,0.47252469951909,0.48601286169871,0.464872158507199,0.538481496449609,0.461658757028361,0.522618557804609,0.468961748815194,0.579143261070756,0.503755250750321,0.483545383915892,0.414557301986883,0.467714111175478,0.57360750971987,0.580563562823004,0.476615585959468,0.497406105981826,0.591899671454641
-690,cane,12m,PO,0.452552727584568,0.448380921972709,0.47195651411761,0.500276596809109,0.470997094451573,0.52729367347733,0.451107448465698,0.522682471300125,0.492543158925344,0.57924013690038,0.517994464193909,0.479458778954732,0.420864079365424,0.47649378292633,0.569632440339142,0.595118715023174,0.476802359605846,0.489686411470328,0.6001627573581
-680,cane,12m,PO,0.46067044635278,0.445633433294096,0.472457771772344,0.515408476546334,0.477541958447962,0.514157650428711,0.441258067845829,0.526929444477206,0.512745167172201,0.579391407601752,0.531486506910474,0.474551374158399,0.42930940470911,0.483220179527582,0.565859634437709,0.613356049941096,0.483721462185374,0.481605358940943,0.601724375529712
-670,cane,12m,PO,0.463963546419379,0.445329214817412,0.475722663118011,0.531644764919254,0.482880655321217,0.498774972767615,0.434260377424813,0.533500510073845,0.531833080349851,0.581887150280277,0.540754463321668,0.468872589046515,0.435733656924892,0.489077050115913,0.560004320533108,0.629292620606645,0.493662782188841,0.4734463099013,0.597095422886047
-660,cane,12m,PO,0.463641310870125,0.446046160361779,0.483354407695514,0.549621740620236,0.487137764969927,0.483043144779017,0.42777406257259,0.539480104037103,0.547955938504182,0.584354536900013,0.544661026117352,0.463713532331336,0.439242211668844,0.49348326150171,0.554433678788364,0.639540598972077,0.502733918277415,0.466426270140526,0.58930714285858
-650,cane,12m,PO,0.461501363704127,0.450184743597645,0.495742565390243,0.566390047919563,0.488392798333907,0.469021808778802,0.42260779030227,0.543614636278509,0.561550486289334,0.584769757392915,0.544142920763984,0.461062077041046,0.440281814619818,0.495745217719829,0.551236210090649,0.641441299106264,0.508309173759156,0.461635755148169,0.581914329967554
-640,cane,12m,PO,0.457960834010465,0.456742001075462,0.509751812337016,0.581880088873994,0.489645916023904,0.45366595887128,0.417680560404638,0.548185370397336,0.572424840967323,0.586032752589562,0.539990290858272,0.459321152519296,0.440976711130681,0.49608826979992,0.552583040529832,0.63621659105709,0.509116620703408,0.460185400065743,0.578604381080397
-630,cane,12m,PO,0.452832479591644,0.465609408701089,0.519643816932513,0.59325271343931,0.48881127531789,0.43604453929223,0.408850555750004,0.552562731210863,0.578292756644909,0.588394526328045,0.536301032132414,0.458460364116686,0.44225782427933,0.494954509197398,0.555944647734368,0.625782657224299,0.508759944052592,0.462175234513645,0.574171112638637
-620,cane,12m,PO,0.447892917148321,0.474221179682098,0.522184346655171,0.598606707087908,0.488049034715841,0.420129568006591,0.398913320084896,0.556592111958081,0.582933680452638,0.58889401146357,0.538011982588251,0.457855543425932,0.443764398705254,0.491128535412073,0.559217642161399,0.61220591967732,0.507560750929568,0.465881162274372,0.564658029502532
-610,cane,12m,PO,0.445126871255081,0.482124301395672,0.51864130960349,0.599223418310926,0.487678754992101,0.406095632200609,0.393714272138207,0.559600911586635,0.585562636519902,0.584909999094601,0.541315236910911,0.456303296088686,0.445857903671658,0.485241006766222,0.563145053890314,0.59906748278576,0.502931735780799,0.470323305966391,0.551500028430852
-600,cane,12m,PO,0.444655402744143,0.488865648492292,0.511447616113812,0.596381251159027,0.487557510921019,0.39348279694867,0.3949027833342,0.561173471420301,0.583170096994111,0.57758616157765,0.544374215060174,0.454146194895921,0.450991453956769,0.477608309904633,0.567890195254705,0.588785685148256,0.494857754936105,0.47420117745546,0.534712381318068
-590,cane,12m,PO,0.442519207680404,0.493509628521634,0.503485573248851,0.590757999020114,0.485505052173888,0.383475752842665,0.398753307720834,0.560102284412189,0.573888802216487,0.568625858846644,0.549364044969864,0.451843280106661,0.458144757936505,0.468792580029379,0.571416460636174,0.580655703401096,0.487492332527908,0.477385500642068,0.517406503620775
-580,cane,12m,PO,0.442085938241838,0.496755316269602,0.496667668169161,0.583252512566663,0.481583166508006,0.374700159151824,0.405510710862434,0.556759859611137,0.559921012467141,0.561097685642846,0.556138503435975,0.44840178681465,0.466841551836944,0.457776343155054,0.5743236490414,0.572813070375291,0.483618941611064,0.480412226847081,0.505819207721617
-570,cane,12m,PO,0.44449039533608,0.495085065211617,0.489578587675753,0.577503853961686,0.477535638301591,0.369320989243593,0.415680151218624,0.55403119874222,0.545656822108946,0.559551811605966,0.563840494025524,0.443938060100531,0.475079319831849,0.449749469002431,0.577183282624974,0.566446970059543,0.482078536766799,0.483447379193229,0.499713528123467
-560,cane,12m,PO,0.449965317900318,0.489050161094764,0.484881079167253,0.574951936536594,0.474134790467421,0.366139731742254,0.424948473004577,0.550028973511416,0.536172266696851,0.563302204937725,0.572238052650189,0.439712849223698,0.480476874164695,0.448562143760604,0.579008140513456,0.558616103206188,0.482866523399036,0.488362612870155,0.495314316715675
-550,cane,12m,PO,0.458664000623103,0.480705466753991,0.479588233392586,0.574846827934003,0.472512340185322,0.366084899175902,0.432891014127591,0.54271954426131,0.531808111561189,0.569468182752496,0.581050895727654,0.435353072788167,0.482990123940148,0.450700463627676,0.576236532012934,0.547874691383513,0.484463596512144,0.491960248593727,0.492629866257049
-540,cane,12m,PO,0.469042877058629,0.473250937014039,0.470334456511146,0.576437084192281,0.473983967707031,0.366912819830444,0.43629844016044,0.532331012357007,0.531083044013309,0.576479033358225,0.587973581080034,0.43181750161368,0.485204246340042,0.454343519640029,0.569012015745992,0.536303651189293,0.486757160958646,0.491906790112937,0.489461176461691
-530,cane,12m,PO,0.479448732035309,0.465595244697209,0.458443742456388,0.577554379665956,0.476798915632067,0.370815486240064,0.435201963597471,0.522015792615907,0.529520815310157,0.581313129149519,0.592370837514181,0.430582656271511,0.488035129715284,0.458874109119031,0.559997722626284,0.522634306117741,0.490082322373954,0.488889147325283,0.483288273285877
-520,cane,12m,PO,0.490127077001645,0.458789969144508,0.443458449827485,0.576733826895519,0.48074835623789,0.37688204217634,0.43115657365166,0.514237763906388,0.528856968944883,0.58300779666005,0.596237817994807,0.431057675372596,0.491190161585018,0.463330270363114,0.551743985453725,0.50839918298972,0.493220513185785,0.483197046454713,0.473911462433129
-510,cane,12m,PO,0.501553726980052,0.453166518574338,0.427212777343634,0.572704990140625,0.486553693209506,0.384907319510307,0.428733138471208,0.50994872775569,0.529123336561333,0.579940717355575,0.600182644224877,0.43309399656978,0.494984068893933,0.466798581298151,0.544093745703022,0.493897784923685,0.494396170873427,0.475736767761373,0.460662364250492
-500,cane,12m,PO,0.51215879400946,0.44968042452334,0.413433267839905,0.567107905278852,0.493591028697637,0.392342887961898,0.431113222531237,0.50859764343886,0.528194573341897,0.570048161417183,0.601883983757786,0.435756059079759,0.501327479069925,0.467540943068573,0.534612799643068,0.481390097494824,0.493714411405541,0.465519420520928,0.448066479777714
-490,cane,12m,PO,0.521911612218448,0.442440335023812,0.408842232978122,0.562943731698511,0.500835740818235,0.393937467760822,0.437396020811914,0.509878619323576,0.524606513333216,0.556642712200776,0.602883955259964,0.43792541379835,0.509431341896003,0.468034245742078,0.525204188745722,0.468692509656663,0.493385067122893,0.454993668648874,0.437249449986148
-480,cane,12m,PO,0.529534161747495,0.432319382574916,0.413005845742834,0.559689495855839,0.505770916304084,0.391871471946784,0.444693747818628,0.513563721821196,0.522070180643702,0.543572068754209,0.604859084864172,0.439763206922352,0.516225720400407,0.469706629941472,0.517010154731792,0.455079047547614,0.492984244444305,0.445776776803839,0.429325712487677
-470,cane,12m,PO,0.534785234075555,0.422333603966736,0.419096290769415,0.557522933364029,0.510588760828542,0.385841083677944,0.456610856980752,0.517796409625936,0.523119257637816,0.531813288270373,0.608675387302526,0.441913488911062,0.519672058100969,0.471705855977857,0.508937100820323,0.441165226234939,0.492053946677845,0.436300566708123,0.427122615374949
-460,cane,12m,PO,0.538122802706103,0.416554754545249,0.425031156932109,0.555673865094373,0.516044793671524,0.377371420033877,0.474410285999465,0.521190236330211,0.529038197172232,0.522142901510947,0.614915707804596,0.446553020624981,0.518562865755196,0.475280132293367,0.501597593915539,0.429459508234332,0.492908910105558,0.428022176974659,0.430800943055942
-450,cane,12m,PO,0.540054365269497,0.416060554245767,0.430155486269463,0.554160311401329,0.521691585252131,0.369651685044422,0.497072051641057,0.522273875969527,0.533385973814737,0.517215567948218,0.621618314001308,0.453092090958346,0.516852152619808,0.479746050049978,0.495398106356033,0.420087305693184,0.496799094324832,0.423080881380837,0.439173808717919
-440,cane,12m,PO,0.540764723524461,0.421606350932562,0.436140275211257,0.552650533776611,0.526158556725313,0.364981411326625,0.521023742424427,0.522018401867379,0.535682426978957,0.517627890358359,0.62524997991407,0.461740889920374,0.513356189548089,0.482951133081472,0.489995474720421,0.415763430658233,0.504524304553257,0.421641544272468,0.448166112932896
-430,cane,12m,PO,0.541113571610169,0.432979208510345,0.440534484879815,0.55229974837537,0.530865282297712,0.365256256532443,0.539404093660802,0.52204877947724,0.536422397236111,0.521503199573663,0.624017335502635,0.471468854233987,0.508142250765105,0.485388217062406,0.485408789620939,0.419570088445,0.515664191738921,0.424639881589468,0.455000344554263
-420,cane,12m,PO,0.541118619749134,0.445398898879031,0.446906528190902,0.552627516732052,0.534491670962501,0.369740529931552,0.547442495579703,0.524761007804834,0.535937368414651,0.528893370386904,0.619074495925467,0.480090724100373,0.502284096468433,0.487588993014216,0.48298557130267,0.430000066400453,0.526699217958953,0.431012436986885,0.46218370748646
-410,cane,12m,PO,0.540398090680473,0.455539582406749,0.454713810774168,0.553758541514034,0.536711887256393,0.377115789077969,0.543189831663142,0.527852659244733,0.534848908946908,0.538263397127368,0.615815940249982,0.485708443743716,0.497566291218452,0.49022897910403,0.481109575052937,0.441351057880386,0.534093255009997,0.438020372590583,0.469016841484822
-400,cane,12m,PO,0.539201149794003,0.460988268328593,0.466165862555937,0.554333098060709,0.537373864338861,0.389181626813397,0.529293775698528,0.530886415584687,0.536442946594068,0.547099298603534,0.615449038397403,0.490158081146586,0.495240468512226,0.493924723432939,0.480734610131563,0.449753776732915,0.540102323496164,0.443861364868335,0.475194997476652
-390,cane,12m,PO,0.538965934610757,0.463744319292879,0.483886630398568,0.550446371154991,0.534925783261705,0.405607758533992,0.513396119473607,0.534236818467137,0.539710949575932,0.553023586130035,0.614788420942729,0.493541252771758,0.492310101197984,0.499122340650376,0.483508980529341,0.454567771402674,0.547153929297596,0.447605451547239,0.481565797744085
-380,cane,12m,PO,0.538855809452597,0.46699561927506,0.503739883128646,0.541130600094575,0.53194139873942,0.424752224661586,0.497825526484652,0.537403030456933,0.543352679444574,0.553792765975767,0.615080533161219,0.495548995390598,0.488873690790201,0.505584055529716,0.489338231207352,0.456012739407983,0.552355599223724,0.448667490594956,0.4873723988482
-370,cane,12m,PO,0.536022175142207,0.469023296868784,0.525202267132881,0.532701862162156,0.530628740508938,0.445527944639788,0.48240279187047,0.539817259281769,0.545313572721215,0.549432872279405,0.616403165402383,0.495787981963887,0.48637311730514,0.512088948930409,0.495266690926897,0.456849958056698,0.556285520255505,0.446603364096975,0.488960149503276
-360,cane,12m,PO,0.531934284731494,0.468878329132478,0.545901772180571,0.526736050872709,0.528094100593235,0.464519182588025,0.467838211780994,0.540852735177012,0.542246567438683,0.543176465812518,0.617251628427794,0.494564165747542,0.484465396036289,0.519050917560305,0.499800633213785,0.461613048204291,0.558580948137601,0.444121707643864,0.48933702968851
-350,cane,12m,PO,0.525647481553173,0.465921252253256,0.562575035821314,0.520318301814487,0.523623388662291,0.476172758896093,0.456237207690128,0.539716666475289,0.533535049142794,0.538274039165757,0.616239589176006,0.492321938688533,0.483312531935442,0.524047822106624,0.50310447400086,0.468629318623195,0.562513124348163,0.444082589783135,0.491996277354708
-340,cane,12m,PO,0.51806654142243,0.461781560850859,0.577044577555916,0.515867008079368,0.518008657806242,0.480494291880129,0.449808396785684,0.539681783168502,0.523357577406265,0.5357237647213,0.613452451888597,0.488704811278779,0.48378638135969,0.526891121502796,0.505539252614598,0.474536189345029,0.565955166045905,0.445679721377228,0.499371168885036
-330,cane,12m,PO,0.50960976441739,0.458652768664301,0.588782343243313,0.513196324300148,0.513578551411292,0.481930192623795,0.443034479245013,0.541898436165443,0.51169022453323,0.533798819386226,0.612329930642801,0.486548935026401,0.483916767419165,0.528058371684795,0.505644223824267,0.476797480383301,0.5652996121227,0.446448074116966,0.509524040988321
-320,cane,12m,PO,0.497863610679218,0.452994535977367,0.599404746662811,0.509738158433417,0.510387150237742,0.48399910412648,0.436534764938685,0.545174665327571,0.497440804656622,0.531254652744648,0.612177176142049,0.487082967949741,0.48407245793942,0.528609105482693,0.505692367723515,0.480741952188368,0.559729429669168,0.445932905364681,0.519956823920518
-310,cane,12m,PO,0.48597419121286,0.443920637651487,0.608971020867221,0.504614353811849,0.508105844818524,0.486345732467656,0.433631291766625,0.546477158810729,0.482595913148494,0.52989239590386,0.608693179736813,0.489575495552771,0.485798615205782,0.528836515573398,0.506107144466166,0.485534808940178,0.553572162425224,0.441813358682571,0.526984734250598
-300,cane,12m,PO,0.478040401834192,0.43604886243186,0.618451017267721,0.496645273926834,0.504900219607657,0.48961033709347,0.433959900030495,0.548376957466813,0.464479650365887,0.532420829732872,0.598866599369914,0.492284239824459,0.489439257925348,0.529059147703665,0.506025769435524,0.491895179080531,0.548741774274622,0.434870713386315,0.527894578952489
-290,cane,12m,PO,0.474996155115677,0.430569234559905,0.625648053294363,0.486697036802515,0.50112029422271,0.49229801980906,0.431086723877665,0.552162826968164,0.446343107877077,0.539814363182869,0.586710419153457,0.494607690443568,0.494407096927992,0.529528414656438,0.504799523870561,0.498274123497002,0.544571050439095,0.427615961272002,0.525542810862669
-280,cane,12m,PO,0.473745049025325,0.428880303977974,0.631386130036664,0.479425188860006,0.497258757992829,0.492762668048586,0.423179884767418,0.555375945683004,0.428890611136255,0.548611289258118,0.576683976285646,0.496613119882296,0.498889286216753,0.528045180452468,0.500596596052676,0.503511880163017,0.539936013732806,0.420778229122791,0.522988249224521
-270,cane,12m,PO,0.472908332076494,0.431732819166249,0.636677187041386,0.478833707893247,0.491919079502503,0.492367731705213,0.412591289816062,0.555733415946485,0.416492084891607,0.556389332660782,0.56989534422916,0.497179219402235,0.499525769774416,0.523393872224507,0.496743238181569,0.508501433344171,0.532779787565027,0.41287622539194,0.519329521734777
-260,cane,12m,PO,0.470726232009584,0.435437412685422,0.640235024097465,0.485756143403846,0.485057880091669,0.492707907164861,0.398468764685066,0.554611707758955,0.413115621617774,0.562084526179235,0.568076807364544,0.497707140700102,0.49741762134657,0.516256933744032,0.492501670837107,0.513000968957719,0.521372672041147,0.404514686016015,0.515819345786423
-250,cane,12m,PO,0.469484846539721,0.439359129637469,0.639462569969486,0.49618908578877,0.477032273028342,0.49497500178347,0.385378096963596,0.553836846294762,0.417625192593774,0.563357878810959,0.571156825426056,0.498101643052504,0.493981292012784,0.506518299009538,0.487951031403753,0.513460244721938,0.507936525152791,0.397182475755843,0.515642805173321
-240,cane,12m,PO,0.470955755028829,0.443352625254135,0.630862353028141,0.508417322988348,0.468366216024494,0.500652585982775,0.378244502264052,0.553697266819078,0.424755964506317,0.560000277087993,0.578126427318859,0.496262196510756,0.491426946206139,0.496862660652664,0.485666408320778,0.512676401452096,0.499507306106976,0.392479808896681,0.515882426396741
-230,cane,12m,PO,0.473733317998302,0.444813691003253,0.619235326290374,0.523466032968415,0.460348789581425,0.508689617037814,0.380749477647114,0.554332908930087,0.431188613794995,0.555469925898018,0.585828548801754,0.4946356330979,0.48874632533838,0.487546621481613,0.485095543198127,0.508038125556443,0.494831508558252,0.390629262781769,0.519215704485728
-220,cane,12m,PO,0.475287712859139,0.44588107290917,0.609149090466972,0.540444076574159,0.454102959232471,0.515246042241975,0.392849175041625,0.554638802845865,0.438935433183097,0.550086942997362,0.593474974658714,0.493450143988301,0.487353886430315,0.478387673168132,0.48492441683794,0.499647183808902,0.492626224156971,0.391447016040576,0.526998782370798
-210,cane,12m,PO,0.473521651424567,0.449247700276395,0.599901077466942,0.55819159929297,0.447448849018774,0.516530548083882,0.409193832543819,0.551604874533987,0.448945826467671,0.545728820240376,0.598855011904561,0.492083964182886,0.488575780576546,0.472164384899236,0.485096621815263,0.487932957064975,0.491602759713428,0.39610253278817,0.533776754569917
-200,cane,12m,PO,0.4701174692403,0.455415700477155,0.593637850726484,0.576176967936175,0.442028370439149,0.517476649434906,0.426504106539823,0.544932623386431,0.459674225824943,0.540650522785856,0.601615556019279,0.491134868331369,0.489907035458493,0.466931486664854,0.486014930163708,0.477064215454912,0.491128572282323,0.402104062729123,0.53831674666551
-190,cane,12m,PO,0.467997256614382,0.464345734660067,0.591070347687489,0.591731096749591,0.439359941572516,0.521397988915949,0.440271480309909,0.538115605440493,0.468489124223161,0.534514728271508,0.60264877856081,0.492216504972787,0.485598140435619,0.461433736476276,0.485793437602448,0.468069118706692,0.490516928834179,0.408963874580064,0.541239317555291
-180,cane,12m,PO,0.466514216657758,0.475812418202449,0.590039695778062,0.602449749876403,0.439273504574558,0.526970639783789,0.448911693945161,0.533588534858738,0.473423250217485,0.527965065932573,0.598816937235324,0.49353429857172,0.478679758552166,0.456373853188428,0.483287534256307,0.457579095789397,0.488709805424612,0.41642510571579,0.54167721777222
-170,cane,12m,PO,0.465395048406345,0.487846551608115,0.589453477018783,0.607595843752451,0.440564453795731,0.533571644771058,0.455895273281091,0.530152710496865,0.477074682507069,0.519899390492205,0.592790951375315,0.492954885419303,0.472339850034485,0.449331783958275,0.480682318573485,0.447651032420371,0.490802924456609,0.422554553016115,0.539680624211334
-160,cane,12m,PO,0.463710519028914,0.495424654904386,0.590076141689847,0.607449954775468,0.444145040374437,0.53998597655786,0.460343067205212,0.526184606061367,0.480137551712414,0.50992857022914,0.585910326386615,0.491255135097029,0.468599549139895,0.441719326307943,0.479948143978317,0.439518847960182,0.496019535285437,0.428445723290646,0.536893095576031
-150,cane,12m,PO,0.460473628454871,0.498702709191399,0.591283263090679,0.604858279679466,0.449279703038074,0.544770626414625,0.464493524667618,0.52182475345609,0.482160914406408,0.50103141467766,0.578002403252268,0.489309386047305,0.467633828880713,0.436663958074467,0.480698752120223,0.434947466265437,0.503267142383253,0.435066171336327,0.53453378321535
-140,cane,12m,PO,0.457894042853092,0.497094109518514,0.592417071426892,0.600026580334629,0.455172497578211,0.545446777316362,0.469231580351856,0.518061325324394,0.481950774666685,0.493831054331867,0.573105075390137,0.488288998057097,0.468135014669817,0.434552460648404,0.483227838880811,0.433381900960948,0.515374432330528,0.444123368800538,0.53313380887146
-130,cane,12m,PO,0.457088138063491,0.492267991721171,0.588216401138099,0.594141351841669,0.462962259300707,0.539837706347996,0.472851166609491,0.516376455655307,0.48039619485296,0.48838342823986,0.573206509044675,0.488264717846751,0.470700161100738,0.434699829016855,0.484722963404134,0.432755050322159,0.531164009182727,0.45454469220933,0.53173108632246
-120,cane,12m,PO,0.456042177107349,0.485421011633885,0.578189445821508,0.588327110326919,0.474103073075904,0.529483313182357,0.471754603587286,0.514853279026771,0.483364132325299,0.483720157131796,0.575902095500486,0.490065562892234,0.475963734866068,0.437672258737506,0.483392241672394,0.431588157443826,0.550588716503381,0.465347103544947,0.530207617292919
-110,cane,12m,PO,0.453935810314075,0.481045713404012,0.565033726219801,0.582700767636577,0.485747126797684,0.516144673372414,0.463980048878911,0.513355589476855,0.496316760461429,0.47947097916216,0.578783557057872,0.49349778120775,0.483508335692621,0.444164173751261,0.479287125576336,0.426126749040238,0.568877784014753,0.476671431746329,0.529051880465484
-100,cane,12m,PO,0.450711814015041,0.481909659459969,0.547944078011543,0.57758002863726,0.493847830048996,0.503545219974576,0.452935036237608,0.51148759021953,0.513200279909536,0.478465049869934,0.580927703385002,0.497358085728765,0.492253328751843,0.452629992261886,0.476059200955952,0.417201357103841,0.582034779475266,0.486893121918173,0.530435255049161
-90,cane,12m,PO,0.447788567245085,0.489665433864205,0.530271166517233,0.572904670390084,0.499364958797929,0.492034374891274,0.442433113351681,0.509892744181029,0.529332087174641,0.479141616251291,0.575844690481895,0.500475082196421,0.500051671061073,0.464982076033223,0.473162738687903,0.406978401567392,0.58959328249382,0.4924751020948,0.533509679066458
-80,cane,12m,PO,0.44764409199771,0.501726640060579,0.513030012206496,0.570474331352578,0.504149744883585,0.481058645620555,0.43536779871111,0.507242098324902,0.545457864244275,0.479600713596228,0.56390688489047,0.502272153773569,0.50741589118211,0.477512780531209,0.468249532935835,0.400084831515399,0.597582092461244,0.494427463784332,0.537239694306369
-70,cane,12m,PO,0.448406202199557,0.5140575906999,0.497495456648128,0.566552229956579,0.507221254967198,0.471494971447175,0.431370475988858,0.502287712875182,0.560613049257191,0.481034040627574,0.55520029229761,0.503551043675895,0.512859312398255,0.487092671498147,0.461170989260942,0.398587336866987,0.609605351763163,0.495064264766758,0.541150819092566
-60,cane,12m,PO,0.448296287625694,0.523847057256141,0.487922512950712,0.560629329003303,0.509389177767045,0.464589392316506,0.431985196707469,0.497216139134929,0.572101341868852,0.483947429326325,0.552808328469289,0.503833781421272,0.516926548304528,0.4925408174037,0.454491380885388,0.395823765852001,0.624031070182698,0.495399159285099,0.543362520671314
-50,cane,12m,PO,0.448441057036128,0.529553341758532,0.484880324035132,0.557355468887169,0.51067941719099,0.459114368200836,0.434923909470969,0.493802448504636,0.580642781841847,0.490475045969805,0.555036681881651,0.501607561893448,0.518390346691214,0.493345837161507,0.449559436396729,0.384312791508105,0.634901939508877,0.497634678773612,0.540317397422658
-40,cane,12m,PO,0.449537730491048,0.531751215973541,0.488683921470467,0.556455381168322,0.507030808599978,0.454917572018657,0.439245639610432,0.493216857573404,0.588719898837562,0.499339326896464,0.558545114096166,0.496426585968364,0.514520522478511,0.493203400581611,0.445201980615853,0.367426680558129,0.640844182107108,0.500349825618837,0.532675162293674
-30,cane,12m,PO,0.448432605427959,0.531049131522329,0.500590641171737,0.554123064201384,0.502059138869815,0.451757652251749,0.445122875691453,0.493866060361438,0.595498112235303,0.508545656201305,0.560966698855116,0.489778559512314,0.506953538767344,0.492229735928334,0.440021947461289,0.348113390716036,0.644906031123144,0.500562007338258,0.520677053118888
-20,cane,12m,PO,0.447319950389973,0.528559200501663,0.515057810579827,0.549827505141034,0.496720054562363,0.450604097305426,0.451484600580986,0.494472738753426,0.599679289093911,0.518680858446626,0.565331778019613,0.480989356661188,0.4958276168928,0.49060890254935,0.433135344477227,0.333194910994212,0.646451352885234,0.49762248632533,0.508507910069698
-10,cane,12m,PO,0.447670710883457,0.526901420539436,0.529686498946275,0.545186405018053,0.488331096431449,0.451984452729037,0.455311077019656,0.494806427430175,0.604758886875605,0.527719498845138,0.573913424501505,0.470160502458488,0.48183942778383,0.486695175473473,0.428832599984245,0.325523962230824,0.643184089707133,0.495282051220685,0.497770914987841
0,cane,12m,PO,0.448895320623098,0.525872327861062,0.543767674569557,0.542416450289838,0.47914918195694,0.457517865489346,0.452845193303946,0.495699375168866,0.608619280183427,0.535747633680188,0.584906686090175,0.459625897536944,0.466690773908722,0.482642672751637,0.427984038189042,0.322359386230414,0.636164839631708,0.49458399764799,0.48819972296989
10,cane,12m,PO,0.449894375325242,0.526134074387684,0.557032796580967,0.541147826344105,0.472035315865639,0.467572307246432,0.44705301061932,0.497613889443973,0.612772139358731,0.543687809194862,0.594464427047449,0.449821554037078,0.450892208840164,0.478936985189297,0.430613885613769,0.322775226715818,0.626558521752802,0.490761772407107,0.48343142067241
20,cane,12m,PO,0.450827549043809,0.528986872394069,0.568382285786683,0.540423957971724,0.468033957719137,0.481048770363697,0.444575024553687,0.501208595535886,0.618791781685675,0.553297966312692,0.599948679129441,0.440651955781967,0.436881152601076,0.47692852630943,0.436919447938129,0.327441628816713,0.61957803226501,0.485196810112025,0.487817055431891
30,cane,12m,PO,0.452803836704152,0.533445036750548,0.577895879072321,0.539666277719134,0.466416107906161,0.499410414799408,0.444721132664657,0.504634234722923,0.624858578829185,0.563551422410667,0.602867439568807,0.433132499278839,0.426503982279776,0.47601439133038,0.446030515863077,0.33402734063396,0.618415486898966,0.480619996101481,0.49654824450305
40,cane,12m,PO,0.455123713344996,0.536898503049606,0.584129876336751,0.539959203973689,0.464540807241653,0.518427177707951,0.444444169173823,0.507029411221064,0.626567160919311,0.572203081963957,0.599321746335474,0.42865616147964,0.421003426224365,0.476541412957997,0.456831354108591,0.344589765161454,0.622106803582413,0.47843646549878,0.505647027008415
50,cane,12m,PO,0.454748630903908,0.540598738850167,0.587477192965971,0.542348154413381,0.459766932465262,0.534558978936187,0.443326762994245,0.50941938706469,0.625887915116709,0.578913755614796,0.589605608584011,0.427396967028547,0.4201319330696,0.476186389758473,0.467484190978384,0.357578693836284,0.62417466463175,0.476951984157115,0.515234899998826
60,cane,12m,PO,0.4511188648989,0.543631815513291,0.590139904616594,0.543546035798122,0.451656145076021,0.54583568203326,0.442626360899773,0.514304989462786,0.62503455751896,0.583446561232549,0.580167052831347,0.430482785465191,0.425710314858836,0.476610704552987,0.476934260424442,0.368628281982234,0.621773026698779,0.472781843263347,0.524065419432113
70,cane,12m,PO,0.446172075410758,0.544364824916202,0.591417039670258,0.544130780453403,0.441761814077906,0.551471304269751,0.443779653893704,0.522629231181907,0.620944815247915,0.586132021668218,0.570750532945097,0.437623686047337,0.436866150939019,0.478245860398011,0.484412157078681,0.377488248531898,0.616830995287174,0.465317518647655,0.529830978679451
80,cane,12m,PO,0.443053693123267,0.542122390487828,0.590156504277705,0.546125296452937,0.432552487315003,0.549818793280834,0.446557311226616,0.532080849041119,0.613845870672103,0.585667856380174,0.561314398178069,0.445729882457584,0.449717044452275,0.480062054252833,0.490732827448318,0.383596882168918,0.611897651764984,0.456134637811981,0.534820960644988
90,cane,12m,PO,0.439805825035021,0.536860588060112,0.586182642067955,0.549186086373328,0.425637743858907,0.540752394662178,0.451756331783247,0.539663298242177,0.605466518266036,0.583554863032619,0.550216141962957,0.45305825131489,0.461788655413588,0.481886915285012,0.497463034818636,0.385924186366344,0.607779245251467,0.447691987447192,0.540028614482107
100,cane,12m,PO,0.436769333832794,0.529463846637389,0.580658339685745,0.550316092485386,0.421799639185727,0.528626822619402,0.459542298899519,0.545962703567164,0.596514154501295,0.582087678543217,0.543146221470564,0.459965065125747,0.473911681189222,0.482039625497079,0.50295326713604,0.385529342271698,0.605555118221979,0.440388118165552,0.544366238721474
110,cane,12m,PO,0.433851234605267,0.52213130391361,0.575153160920802,0.545846377254304,0.42223984820864,0.516647478488822,0.465368481596766,0.550534961631723,0.58636123217877,0.580320508404459,0.538435513262108,0.46684784370454,0.484869610181418,0.479571135354302,0.505450935623773,0.387139995832898,0.605084995815168,0.433998513066475,0.545130471162454
120,cane,12m,PO,0.430201235084398,0.517733636484182,0.568530238165136,0.537887545523369,0.424694227439087,0.507338174404573,0.46638349974085,0.55032885770795,0.574598326390982,0.578031813919791,0.534114076132627,0.475873552674579,0.493323560516039,0.47544195102681,0.505865509335057,0.390387819619563,0.604932912622181,0.429212041453882,0.545137081366
130,cane,12m,PO,0.424521485662968,0.515290696710305,0.563345715407891,0.525234987665752,0.427294014478416,0.502145261534266,0.464116276379175,0.54703773757754,0.565267635413551,0.577943072224928,0.532228696586831,0.488101117513621,0.500208517440584,0.471525139896187,0.504253856309737,0.39229198869971,0.604115632318223,0.426628251975082,0.544478190220768
140,cane,12m,PO,0.417691621893629,0.513344377383185,0.562649768974068,0.508849825240341,0.428337551633547,0.501516946971448,0.462062914985926,0.540781291938049,0.556282039907711,0.579192497605787,0.532878984770891,0.50019909238869,0.506446954902534,0.467671696575964,0.501708478034701,0.391583406935001,0.5992424317944,0.427068819703488,0.540530913054104
150,cane,12m,PO,0.409312632420401,0.509947047077398,0.565452187566861,0.493119637654889,0.430779322063716,0.504874171548649,0.461119601517845,0.535044606994615,0.548986151213325,0.582392396216116,0.533406364737593,0.509408946692783,0.507813167182718,0.465261727849351,0.499268947573774,0.389036396988387,0.590715752227479,0.429583402516691,0.533862307918168
160,cane,12m,PO,0.399726616060689,0.506436731203228,0.567917376126349,0.478774279492617,0.437624077042413,0.50789298255896,0.46577704003098,0.531223474325679,0.547130213618145,0.583621060214394,0.531841516615424,0.515895784828492,0.505608826116348,0.463685205900626,0.495860236901566,0.389133360056599,0.578627191853199,0.434034956340412,0.528123342421816
170,cane,12m,PO,0.392321797479588,0.503180442709082,0.569697491251168,0.468803702597844,0.444361680868364,0.509657740781139,0.47359247937268,0.528956520568278,0.551590398444749,0.580958977568066,0.528971255265915,0.518802958488399,0.502299123368045,0.463259878105645,0.491193867721695,0.393630973580496,0.565064406767455,0.440526641651428,0.521143079950099
180,cane,12m,PO,0.389735651547918,0.501277716473959,0.573352928446522,0.46094874581334,0.452324978450528,0.507836007200812,0.481332877992189,0.528123345887648,0.559502558683902,0.57456113450728,0.529557322519516,0.518966168813752,0.497625801528218,0.462627207848379,0.486305325054207,0.396669271543723,0.552873167931673,0.447638364369884,0.513926686544108
190,cane,12m,PO,0.390464766301574,0.501454486522329,0.576734393405497,0.453299656842137,0.459842994601204,0.50155687339394,0.490691656787527,0.52831214896025,0.570938466355892,0.564149358554415,0.532419672730339,0.517261107967211,0.490966810158592,0.461521342002235,0.481971169189334,0.401058956762899,0.545305490393616,0.453417661360257,0.510169491329246
200,cane,12m,PO,0.393295929027193,0.502472870709255,0.577298675892478,0.444006430816065,0.465888859367693,0.490131971733962,0.501274248238006,0.529080646407817,0.581121982469359,0.554268587440562,0.53580224348198,0.51473509418617,0.483492153459491,0.460764105184559,0.481278747005149,0.408877609585015,0.540814389349141,0.457801032946805,0.511457334530369
210,cane,12m,PO,0.39693947874409,0.504921347615015,0.571202256170712,0.43722595772121,0.46944815057682,0.476081559187562,0.508697047240239,0.53017749357875,0.589001129289007,0.548576638646894,0.540658387494184,0.512445291140022,0.477035729042435,0.459739024015277,0.483371473719797,0.417591414315848,0.537704470417073,0.461296324944616,0.515823630638937
220,cane,12m,PO,0.402809162755842,0.510637040863834,0.562779572623346,0.433311010695922,0.472557578057376,0.463290181743041,0.512202777881456,0.530472488454451,0.593659099221148,0.545461201656123,0.546132393150343,0.511427792554668,0.469643134193158,0.459685012197527,0.487482737443279,0.424486513841695,0.535352745463515,0.466402899857628,0.523368229470823
230,cane,12m,PO,0.409759672056633,0.516938069791097,0.55516621676531,0.434919366520954,0.476856200928831,0.455190157210037,0.514246412182973,0.531705070948843,0.590607292378287,0.54384284285198,0.549603013500147,0.511614671304621,0.461587288094162,0.461087096269428,0.491881412182197,0.428775418160828,0.532405348264408,0.47193022876914,0.528152644163809
240,cane,12m,PO,0.417459037730267,0.522958601090719,0.549540954380748,0.439951160804629,0.481590861991079,0.45389040187791,0.513090891111109,0.534421861054957,0.580578595945052,0.545157704352128,0.550392591667934,0.511297979504371,0.45388527779661,0.465574882685543,0.49517335485117,0.432642899394078,0.527376925240891,0.476393004840369,0.529328053974393
250,cane,12m,PO,0.427087238530039,0.526492284866985,0.54603561057622,0.442376455135136,0.484609996596995,0.460609089720506,0.51170841744183,0.537231123429739,0.567386744714625,0.548155204944914,0.551307393788252,0.508672095551518,0.449072261944399,0.471267668420978,0.49505079776028,0.439065310028218,0.521911364684953,0.479075972983115,0.524887225956405
260,cane,12m,PO,0.440536181351202,0.527882001700868,0.543983822551635,0.444817493079444,0.486290659767683,0.470264165243908,0.513838727711862,0.538406058112442,0.553826899473886,0.55091921120899,0.551611379577192,0.503468766506285,0.445031836988115,0.476535584278734,0.49328088330284,0.448899242655296,0.519549813890718,0.478415281199408,0.517259088053012
270,cane,12m,PO,0.455120470156627,0.528941230706296,0.543022263997109,0.450081597073783,0.489152781787638,0.47871705808675,0.517646436199288,0.537681239004716,0.540003360816394,0.551859849774143,0.553298926468336,0.49550229345304,0.438838884850556,0.480299111879576,0.49085930048935,0.457008686158983,0.5224285727062,0.475330182390674,0.510404093070251
280,cane,12m,PO,0.465565903033315,0.53054241591365,0.543593671984393,0.458020028230007,0.495352040153741,0.490249016568468,0.518793499289634,0.534011360155501,0.524543896446987,0.55101628036131,0.556131089411267,0.484286210063032,0.435490937145889,0.482613145501996,0.488515277843216,0.458869526360813,0.524463070356995,0.473703461695922,0.506441636911233
290,cane,12m,PO,0.470999013645699,0.532738830461518,0.544856144324532,0.468093470286938,0.504878336259998,0.503999104480087,0.517130057817002,0.528659485433382,0.511959520873492,0.550552309962879,0.556962244962362,0.471970972161457,0.433155459275571,0.483903208220238,0.486567814244874,0.455656240657502,0.523493012689509,0.474754465193209,0.502516016899554
300,cane,12m,PO,0.472980538047911,0.534863856341776,0.548119987672665,0.478972167111396,0.515020367457059,0.516163477260797,0.508644083990446,0.519638642413384,0.504384276893796,0.549039710212486,0.55361531392506,0.459764583557428,0.430679792144719,0.485240995586049,0.482882436500037,0.449892241744979,0.518048199521852,0.477486521129343,0.49604031417235
310,cane,12m,PO,0.473383045902349,0.534081050790945,0.555352882807032,0.48573663389491,0.525986594680465,0.524990218033923,0.494054952498207,0.50909498045377,0.49947429598649,0.547427620602465,0.545001209243991,0.448168287820553,0.429658815007968,0.486817727227917,0.478579977282731,0.4420236915699,0.506970761699739,0.481749535823852,0.485384631320283
320,cane,12m,PO,0.470303590519547,0.530714565772453,0.563544457702418,0.489258657333661,0.538021662507536,0.532224157134923,0.477175567939939,0.501671067951639,0.493726241070182,0.545671945930958,0.529332348605763,0.438570910514608,0.430198081862523,0.487770943397166,0.476528684860054,0.432431292411174,0.496136688375452,0.487575300860778,0.473042137090286
330,cane,12m,PO,0.463776806627751,0.525528965931196,0.567370417697233,0.493680062400318,0.547586273345271,0.538025515612299,0.461086237657857,0.498926640653059,0.485554839330967,0.543403775305947,0.512128298486459,0.431944074725186,0.4328236639482,0.490458610404465,0.474540988323969,0.421144873666264,0.488668925286355,0.492820809437347,0.462614002525841
340,cane,12m,PO,0.455693214235052,0.51803528724583,0.567407599852641,0.499251710428769,0.55323725960054,0.542697210623524,0.447812678226474,0.499993970106084,0.478754707637105,0.53966445799644,0.498527291441908,0.426951501163585,0.437729060045597,0.497347318663906,0.470860934836409,0.41034317319527,0.482490884208993,0.498642383954149,0.456458191282698
350,cane,12m,PO,0.448124828924557,0.512148827529302,0.565827988561907,0.505042961986197,0.556599899320035,0.545898606816867,0.439281114642016,0.502959816692477,0.47666516936005,0.533432374968692,0.48837008765236,0.425165785622244,0.444078864109718,0.506365362935243,0.467209398489305,0.400974941324284,0.478552430779715,0.505508988434008,0.455418572020462
360,cane,12m,PO,0.442454695617187,0.511352063310385,0.562608113618965,0.511276556193208,0.56006489562738,0.547084159021401,0.436571989363498,0.505979784701752,0.479415294178788,0.526995706810485,0.483548776131702,0.427406953770459,0.448740014070227,0.514775652086775,0.465273336919183,0.394524057834494,0.475521352367744,0.512430117141815,0.458686380600798
370,cane,12m,PO,0.440085978659815,0.511683356885182,0.555290370169134,0.516524303417566,0.558967631581249,0.547735128140518,0.439416683844917,0.508380766889412,0.481375383205954,0.521288523209423,0.484233991914663,0.431088621774982,0.450558892679443,0.521226233468509,0.466798014670472,0.392695241975258,0.473421376673119,0.519105519113742,0.464216011713227
380,cane,12m,PO,0.442824676191884,0.510082166343833,0.544057697504293,0.523315985253045,0.553565230552874,0.547481731847574,0.451513239019717,0.511895094810768,0.478702888387255,0.517917938041483,0.487966642179977,0.434121208735425,0.45194719611977,0.528263803765097,0.471691075227966,0.393755731945696,0.472621033386022,0.526482449889292,0.470621102309556
390,cane,12m,PO,0.450297354281246,0.506546335683559,0.530922441102571,0.528993291540175,0.544000936152085,0.546079834038572,0.468116531215353,0.519057637673648,0.471047779068439,0.512909645874677,0.49243201970338,0.433287116063628,0.451681269619663,0.534481245724278,0.479562483770259,0.39767212627637,0.472314273331011,0.533288060646537,0.477072827328471
400,cane,12m,PO,0.458691755656596,0.498995542728844,0.516873941693078,0.529298466792462,0.532303485382485,0.54189672255564,0.483951770424267,0.530023830156732,0.456189152863311,0.504369103629977,0.497160953778978,0.432757661700279,0.450646021304661,0.537970680862761,0.489411554646224,0.405161358192223,0.475180908697763,0.540515388701138,0.483448069681674
410,cane,12m,PO,0.463566249457803,0.486341414291091,0.499785630570166,0.523333344909533,0.522285545694966,0.536115219909781,0.495860049812811,0.542449092810797,0.436900851585351,0.496646448235259,0.503372330917444,0.433690026398022,0.448556433095419,0.540030750914449,0.499679898252683,0.414766362158729,0.478416980899901,0.548079976386692,0.490695905626094
420,cane,12m,PO,0.464575551495641,0.472480460567573,0.483846099796815,0.516304972198705,0.512868959545934,0.529737853156198,0.500910103401363,0.551852593344034,0.418495646883548,0.488770775232259,0.511804320975535,0.435526386792741,0.445138258347625,0.539812644103317,0.50859028614582,0.428864805475278,0.477854491636274,0.555779214717556,0.497245530707026
430,cane,12m,PO,0.464541050362113,0.45839663157552,0.472889943264213,0.511163844548186,0.503360692326203,0.522387600232012,0.495686004366159,0.556429917283162,0.412105294374257,0.482918286999096,0.518043962674802,0.437596728578589,0.441031135221233,0.53732750545991,0.515078799022212,0.444051378607758,0.47461893419457,0.563320809504945,0.505502179669048
440,cane,12m,PO,0.466000248010015,0.446370279703641,0.466918084379383,0.506616202994526,0.494899440126422,0.51455551118711,0.481792109932643,0.556476534895961,0.419847460456634,0.482030556925637,0.524672197287429,0.44000646559141,0.438071953848229,0.533471311459083,0.51862473864032,0.459303341875744,0.468240135472916,0.569363019669031,0.515789529877414
450,cane,12m,PO,0.469550254578475,0.436899776962208,0.467333349540646,0.499832431742883,0.489076539897441,0.506006919519926,0.464108966792215,0.555387452172622,0.437983850848678,0.48399957346545,0.534842049214713,0.443906758817865,0.434157530799485,0.528730325459411,0.519906834297913,0.476096003886993,0.461376469606303,0.571256291409557,0.523706285329506
460,cane,12m,PO,0.475105901295514,0.428489943495501,0.478177821688374,0.492886231573571,0.487272977480662,0.497009107690185,0.44807113548509,0.55657869536766,0.460440684030635,0.487033292280515,0.545618489838524,0.450251356761603,0.433138039409191,0.522768013271902,0.517157879114172,0.490742146433444,0.457913254862101,0.569593826892248,0.525165454238924
470,cane,12m,PO,0.482295300105763,0.420352013754996,0.49348644034836,0.488569061787185,0.487892914718431,0.485422434385258,0.434224883476654,0.558744648330955,0.483140296745584,0.48931582515454,0.551621051179605,0.456984058995022,0.436659839431918,0.517445797639287,0.511345690170012,0.500439180914901,0.460796801894682,0.564102353536496,0.520698271810876
480,cane,12m,PO,0.489517382441111,0.414685276338038,0.511081855516219,0.487910807307457,0.489399939986278,0.473139233589368,0.42402689761753,0.560156786214307,0.500664828261674,0.490672973316156,0.550424595338868,0.462360324420854,0.444095999488934,0.513389361672383,0.503734707876378,0.504757053057207,0.471534239230884,0.557072804081714,0.515997600758673
490,cane,12m,PO,0.49593132661146,0.412732585167283,0.525691869179228,0.489764605694424,0.487354126038556,0.461244237792662,0.419992229299659,0.559855324377964,0.515217961006249,0.492920306568276,0.545091095543275,0.467664628530871,0.456289655694105,0.508197021206464,0.497701030331558,0.505519798274513,0.486124751871754,0.551836320764024,0.511560249632906
500,cane,12m,PO,0.501711141800778,0.415674633453354,0.535220628612672,0.495353028212788,0.482647897898289,0.451409114867473,0.422579927513693,0.558064730065146,0.526987223569003,0.498685957630254,0.539938519261468,0.472522051449555,0.472445143237413,0.505709759458321,0.494065950497746,0.503270824143481,0.500689282527527,0.547363348661338,0.507195156109026
510,cane,12m,PO,0.50501631755169,0.422680353082279,0.538206693067647,0.50266366076488,0.477333996517595,0.444890795291286,0.427815361746629,0.555656135320068,0.535452067222121,0.50707530932779,0.53242753855936,0.477697796602672,0.489522865905586,0.507600905070182,0.491869662565941,0.499246067788496,0.514607539927051,0.544358851092621,0.504030601341367
520,cane,12m,PO,0.506486533885066,0.432721587817266,0.540573369314737,0.508857959597714,0.473097535091097,0.441720705633999,0.428532794681406,0.551040821372846,0.541176663120394,0.51481608291895,0.523646069286099,0.481593939744774,0.507301000645209,0.512207278566972,0.48998470810801,0.492837558075978,0.526559210185708,0.54387398265288,0.501619506647614
530,cane,12m,PO,0.506276736230643,0.442122630678065,0.541596748469059,0.512180933012413,0.470804403561055,0.439579271321351,0.427639492849903,0.546539755368227,0.542792576304111,0.51811163364285,0.514712207305085,0.482545999467065,0.525049755041618,0.516591612104734,0.486264549892607,0.488734121700179,0.536538682198181,0.544643079030012,0.499427145503518
540,cane,12m,PO,0.504291473967829,0.450462448949134,0.541800326305827,0.514272901545771,0.469619976303669,0.436221125856962,0.430697909403319,0.542366311082643,0.542740100803885,0.516106391766906,0.503785927575437,0.482565652608922,0.541896346360256,0.520068908806812,0.482598331818746,0.486640409536324,0.544843624630605,0.544783021235697,0.496605324436867
550,cane,12m,PO,0.50199538374229,0.455711269636087,0.542419264562626,0.518843428110264,0.469890502045334,0.429694600306738,0.441788035382694,0.536953107917384,0.546350831810525,0.511659454463732,0.490758701035391,0.485078654255352,0.554287810683018,0.52318807312081,0.47965518356183,0.488328786674642,0.550899885867246,0.543670144292255,0.494969698234438
560,cane,12m,PO,0.500197550579454,0.459104549744403,0.544114967983698,0.527867253512963,0.471611793234793,0.42043896834574,0.454076606834726,0.529479159765694,0.554143906753124,0.506473747300284,0.477340970895762,0.490574881369361,0.560248599081121,0.526760669803088,0.477360203214239,0.49415614498137,0.554109152665598,0.540747282439757,0.495155404976933
570,cane,12m,PO,0.499052892460444,0.461869413070524,0.548198782749373,0.541138817955612,0.470296372176103,0.412571447666943,0.458385443219846,0.517434085796824,0.560861008531864,0.503966677126491,0.464871263107449,0.496511083992853,0.561419576385115,0.530499449933217,0.476325197825687,0.497182113590593,0.55491415797026,0.538791460293382,0.498204262054251
580,cane,12m,PO,0.497510183398242,0.464208242636312,0.553225977563772,0.554868193276613,0.465106760133717,0.410755336973326,0.45574831856075,0.501248212553144,0.564711611753559,0.506059939113396,0.452858856003023,0.501061143516181,0.559543845196713,0.53576347955862,0.474976259992419,0.501070082538585,0.551066912574977,0.539166131235688,0.50513465756963
590,cane,12m,PO,0.495019559081308,0.466499964830819,0.557743987723926,0.563424866787727,0.457956203965396,0.41281494042293,0.447166775671175,0.483143760741098,0.56503666013539,0.508824655275492,0.444278907640063,0.502986447743833,0.557491779470425,0.540747379108931,0.470523471789131,0.51010113077532,0.544702860374601,0.539817666932857,0.51414143354294
600,cane,12m,PO,0.491928402911238,0.470030694043577,0.56025188148188,0.567722441120291,0.453272961665483,0.417357285522768,0.436837539760291,0.465868507073955,0.557897320980107,0.511903088740886,0.441566756588715,0.502816484106752,0.557388047799477,0.545241509615881,0.46406256139938,0.519398145365945,0.539378930296921,0.539858813044379,0.522221971362307
610,cane,12m,PO,0.489296995398818,0.472737103974209,0.557431757334156,0.571889506124637,0.451580142582251,0.421499760481463,0.423803143672745,0.452812764059965,0.550009927034537,0.513582295629232,0.444348034368846,0.500566958654336,0.559381299652756,0.549114744500645,0.459081984160702,0.528767500565382,0.534622865776164,0.538335958837597,0.528351457155479
620,cane,12m,PO,0.486387731879869,0.473939669069893,0.548128368243826,0.575483856203342,0.451613600660851,0.427011655698507,0.411402075177571,0.446214290583268,0.542674224079262,0.514357983365694,0.446666741860778,0.498956837903703,0.563677095033205,0.552427797314716,0.457895818411152,0.537724832417521,0.530577596708959,0.534950567017039,0.533005284962858
630,cane,12m,PO,0.482255175981926,0.47688295071463,0.537701993815526,0.577663317248613,0.450929298642782,0.433456777649436,0.400540433822582,0.444146120779079,0.537246367991064,0.513464846984486,0.448982537663333,0.501893925957543,0.569759264653491,0.556246905446422,0.460911919746953,0.545856897844017,0.528588810828766,0.530689517375379,0.535923751280114
640,cane,12m,PO,0.476747148317899,0.47841414211377,0.524901377508072,0.578809580781981,0.447362710532027,0.439401584590877,0.395022262937646,0.445001808094622,0.536929739240977,0.50991140471037,0.448345378075388,0.508997740625599,0.575194352021934,0.560732666451313,0.467487317025532,0.5481782937568,0.528995789280682,0.527423214626127,0.537118035656519
650,cane,12m,PO,0.470411456409954,0.477725996168755,0.510836702082598,0.580302967311612,0.441116126904531,0.445283654787639,0.397348298881756,0.446805851588002,0.538927519442274,0.505617592317875,0.449188491856035,0.515621871015862,0.578273545959102,0.565443081417552,0.475493465263867,0.544324676996311,0.531396089734736,0.52432433731896,0.537086661511865
660,cane,12m,PO,0.463746405578647,0.475101364830118,0.498105315517657,0.582585292297234,0.433668049788864,0.451861542224502,0.404404977642318,0.450086503334164,0.542769378092961,0.50060387972488,0.454845101576961,0.518424093742268,0.577839441295839,0.570239284013155,0.482674072126944,0.54120545747091,0.535881805871431,0.520427834095497,0.53759304909418
670,cane,12m,PO,0.455564127711496,0.471147494440647,0.490093198364875,0.583466502782536,0.424764364302812,0.457170109035452,0.415741981781485,0.454818347681888,0.549133518485904,0.495999804776606,0.46415347813027,0.520196852836565,0.575873955803888,0.574737819112943,0.488748834913956,0.537371396084781,0.5424052628179,0.514613293730955,0.543001241684617
680,cane,12m,PO,0.444475097193833,0.46838680060386,0.490322845890464,0.57895019962638,0.417443429152267,0.460848505215298,0.427112371319505,0.457762711609498,0.559455733245236,0.490460834899739,0.473529576317958,0.523642351487649,0.574170611404671,0.578660881691824,0.494337464476335,0.532114660164482,0.551113576390418,0.5066663796798,0.551416230271594
690,cane,12m,PO,0.433226850402044,0.466668843132307,0.497380957683438,0.568745650300187,0.41486261759676,0.464901444090901,0.437241176673558,0.458871634075868,0.573427714731395,0.485267694450519,0.481302524183949,0.528869584968342,0.573417641249093,0.580215155641162,0.499949925848599,0.529567198299768,0.560647267611509,0.497658080607596,0.560817562303452
700,cane,12m,PO,0.426334302740159,0.466695037222897,0.507725295918108,0.555434269597066,0.417192390705327,0.46680545103865,0.445128753342188,0.456269973331508,0.587827775075875,0.47903423168998,0.483192235966492,0.533804089066069,0.574639733286596,0.577387223890575,0.503478307928899,0.53032159863677,0.57059162798648,0.49023656338803,0.568627988059337
710,cane,12m,PO,0.424668995872969,0.470787974610891,0.51998194329916,0.542326361928264,0.421283882174877,0.46291793314319,0.452743067848454,0.452192601650274,0.597476414877622,0.473144275738056,0.482301756431032,0.537257335332877,0.576634307170739,0.570292122658209,0.504883921855287,0.530005743245621,0.581700948685493,0.487599068125711,0.573305917316776
720,cane,12m,PO,0.428049535790539,0.476955056724138,0.532067284538545,0.532151198021566,0.426706234774697,0.458080889808322,0.456653956461804,0.447255777002193,0.595902938902673,0.469350385253448,0.481665789967073,0.538745709433177,0.577109491592938,0.56290381225568,0.505035674329221,0.525070202164569,0.592701187198127,0.488873330302533,0.576147060683791
730,cane,12m,PO,0.433524189283293,0.48447033414338,0.541504161698867,0.52849313208075,0.433414476992941,0.454809120541443,0.457379378947919,0.444824061214907,0.589350605878993,0.467925350011891,0.487451665907972,0.539097387050185,0.573888735153723,0.556964428436678,0.50535830940051,0.513644803813837,0.603662901039295,0.491460919022434,0.576541437081865
740,cane,12m,PO,0.439942837255642,0.493021837648278,0.550637696963461,0.529221508765306,0.440390962181916,0.45544735617994,0.45766899158405,0.447290511721727,0.578158655632225,0.470765846674068,0.500503741546008,0.539416447734323,0.567556858885593,0.550989824878775,0.506290210919741,0.496276067314107,0.611720818983565,0.496038888683189,0.571418965825361
750,cane,12m,PO,0.443404808341658,0.503216980656862,0.562229060069068,0.534086153418211,0.4459055383498,0.460495690023529,0.461774678876847,0.452112035332918,0.56585706696748,0.478076809382274,0.513544280298725,0.54094605262436,0.560280370706599,0.545837510680851,0.510296645138118,0.475475603754888,0.616440937380787,0.502694478964403,0.560216176833426
760,cane,12m,PO,0.44593689327702,0.514704892303353,0.572507382154912,0.541140805485255,0.450828752787501,0.465833484041572,0.46965397151197,0.457448300199532,0.55206686117665,0.487972151889268,0.520439224683267,0.541931473809375,0.554672104083263,0.541252868291852,0.513260438397586,0.454237000676089,0.619631630778494,0.510858272034193,0.548374012599826
770,cane,12m,PO,0.44760279163198,0.52670102610123,0.582798306273703,0.547267617859794,0.456723647385562,0.46797740897511,0.476945661464972,0.462737734865661,0.541337563350601,0.499493060037738,0.524691322915481,0.541867404605321,0.552590673131114,0.536320784866318,0.515547316750535,0.436523408555951,0.621367609078446,0.516692410920909,0.535510401558546
780,cane,12m,PO,0.448467710228628,0.537964514698541,0.591037796522193,0.549961735873515,0.462201212975482,0.467359881096707,0.483513869222377,0.470276059022458,0.534766821315325,0.508419424494945,0.527153857206875,0.54055716607421,0.55146697980027,0.528751457250963,0.515578254910271,0.421635679896417,0.622855113747513,0.517277199255408,0.519861633405593
790,cane,12m,PO,0.450711311680559,0.547118999417087,0.597274438084826,0.549635859836795,0.468909946687614,0.464365916493529,0.488219495500133,0.480533127584692,0.532350635775054,0.509889130648732,0.530909530610308,0.536846426616694,0.547977685985022,0.518213607105312,0.512968732885549,0.411818884336761,0.622808893044466,0.515296041452855,0.504541381361226
800,cane,12m,PO,0.452662596540369,0.551477890565141,0.603732336769254,0.545691944000884,0.473975926315468,0.46167016855295,0.490490326686399,0.494352802940756,0.535063466644629,0.506016015088079,0.535625241440105,0.533210921529378,0.5451878931031,0.507445871099069,0.512568775000273,0.405961841227233,0.621766395534677,0.510438201389968,0.491590961387757
810,cane,12m,PO,0.452946212151237,0.549758740429003,0.610491341668464,0.538243853436458,0.479988961595525,0.458598314832283,0.491557785810341,0.510095763742109,0.542485710557153,0.498830698849924,0.540797763066579,0.529344669875368,0.545168279014564,0.497153998282943,0.51364139370028,0.403509900252051,0.619431615987014,0.501710012061266,0.481718358698681
820,cane,12m,PO,0.454016391703997,0.543165612573918,0.614670365957321,0.528685179257857,0.48804113554495,0.455338379348102,0.494513265878363,0.526683143887781,0.552257100630092,0.4926617786205,0.544194045756453,0.523872869807467,0.544994917685391,0.487619896497479,0.515485034126743,0.40317963202357,0.617348695315328,0.49239470570411,0.474568093688135
830,cane,12m,PO,0.457369410886694,0.535918065559326,0.614692004255102,0.520270595629682,0.49694311909874,0.452232556898385,0.500071801805016,0.543346787472558,0.558691947568113,0.48790553075167,0.542653242755588,0.516048527827186,0.54324203488645,0.479711273425244,0.517280527977656,0.403014142413173,0.616595776409476,0.482833357025397,0.471059500599008
840,cane,12m,PO,0.461864327487303,0.530322838545947,0.611740263609781,0.515475636015212,0.506403447265989,0.447140148122894,0.504669088575311,0.55798481677498,0.562965783044938,0.484563341625926,0.536584135669221,0.504917097301466,0.540313491127013,0.474807789803933,0.516929831980462,0.400489534419346,0.616898498674359,0.472736163116284,0.47266370626884
850,cane,12m,PO,0.465966042251735,0.524371404338402,0.607055385103622,0.513920248332838,0.516553094744305,0.442917276214235,0.510198287883581,0.571201593459156,0.5667869924403,0.483096723939257,0.528910712476271,0.491511403410588,0.53760308320692,0.472512563868993,0.514749986109419,0.394251824174062,0.615481935753008,0.464079224389127,0.479165076890053
860,cane,12m,PO,0.470819340317512,0.520111885798976,0.600933188454224,0.514882837322822,0.526083413587368,0.441746170835592,0.519585466035977,0.580776957673901,0.567446648998908,0.485133449705831,0.520307007158443,0.47883698924939,0.533756266486785,0.470372720935212,0.509510916997313,0.386172325428633,0.610378801632061,0.457145970245396,0.487208078472777
870,cane,12m,PO,0.476792318538359,0.515186607994057,0.59259599675859,0.517675031683689,0.534118841808961,0.441182828743619,0.535568051770147,0.584885422385882,0.563891963612398,0.48760959833602,0.511046285200607,0.468609481791669,0.528435782578738,0.469089070255702,0.501530549856013,0.377050456196366,0.602100044398572,0.451198956648475,0.493310645984303
880,cane,12m,PO,0.485222329334873,0.509702401664628,0.584726399736845,0.521258837878903,0.539617417832728,0.438276083303018,0.553457627530318,0.584659187937919,0.554576046251068,0.490561866266212,0.505173026318813,0.460582684094783,0.523756257707079,0.468027198441289,0.495293968224156,0.37281495931088,0.590804817868268,0.44849240432529,0.496656877461346
890,cane,12m,PO,0.496236704317377,0.504816668064491,0.577872037073208,0.526100371606196,0.54198086603528,0.435745735548698,0.570659466264981,0.581161580371773,0.543186629426672,0.495247259143367,0.504783004558866,0.455323677580242,0.521530621744116,0.465779658017437,0.491018438309775,0.373937933499197,0.579714323454011,0.450330193743452,0.501179881630119
900,cane,12m,PO,0.507953086478204,0.503634089146314,0.574814577969756,0.532041479709088,0.542917717164583,0.433044334755698,0.583812733175072,0.578486503198248,0.533249365052576,0.498641819700223,0.50971708719116,0.451297470176528,0.520557515385592,0.46269063331523,0.488113086133195,0.380360683886639,0.568363586383867,0.455473141389549,0.508873453190991
910,cane,12m,PO,0.51817293237537,0.506973370640783,0.57553799318229,0.538009396845288,0.543159287298566,0.429843039868044,0.594167951931503,0.577907233969563,0.526031459520101,0.502245197066655,0.513308576138919,0.44654041114767,0.519455061794849,0.456960087843723,0.487967551655103,0.391346138069411,0.55684109575614,0.461883023955503,0.513786403939236
920,cane,12m,PO,0.52575243506313,0.512961076648999,0.576567536874616,0.54040685547781,0.543040908036417,0.425827781083967,0.604541562133392,0.578382020756866,0.52139505251931,0.507132401531837,0.515635099991826,0.440595924932137,0.516625301281194,0.451710674682554,0.489849527748312,0.404563142941399,0.548017485343565,0.467018775553824,0.515588465649171
930,cane,12m,PO,0.529380562720166,0.51922301397047,0.573206518135316,0.535110447947589,0.544201992427868,0.420467995966289,0.614106704157029,0.579204703392302,0.523461663746758,0.512669558431301,0.51792152832357,0.434393872162172,0.511831669380429,0.449425306381199,0.491984467391649,0.417175095086392,0.542728301344387,0.470934823476169,0.517412535762552
940,cane,12m,PO,0.528035888179139,0.524922134854174,0.567361838924841,0.526166700671456,0.547335770202887,0.413915149080816,0.620676512064938,0.580522758311043,0.530765221535084,0.517773683268415,0.521087241067632,0.431074866983714,0.505488338398707,0.447959999112071,0.495562446164647,0.427411678133855,0.540922869447939,0.473958207131102,0.518672204158648
950,cane,12m,PO,0.522077177065091,0.529223424084844,0.561759910825564,0.513565564309719,0.550168019724211,0.409007966666249,0.625753117533044,0.58187479729842,0.540703776071194,0.521881609876335,0.523954506653647,0.429552146940028,0.497059274720204,0.446605304736228,0.498221044459121,0.437344736412594,0.539808740191933,0.478007313661487,0.520246505911179
960,cane,12m,PO,0.513517344139197,0.527809342604999,0.557191419384802,0.498196938558082,0.550979811560162,0.406949032005082,0.628809562310984,0.584461530270543,0.54788568887295,0.525349041157438,0.526412943452399,0.428078301261444,0.492250560951351,0.444413997273584,0.499721257232185,0.449570366723204,0.539194304125518,0.482950197897453,0.52246050116228
970,cane,12m,PO,0.505446723874898,0.521785248321851,0.553618136031388,0.479374406588896,0.549652919015371,0.41001189862623,0.631396919495273,0.58712001734194,0.552934229003136,0.529833803306699,0.527065161105022,0.426406854560606,0.491692821758203,0.439690496283891,0.500104715978626,0.461326642302899,0.539908545155189,0.488812692924644,0.523658732325913
980,cane,12m,PO,0.497854176331777,0.515270382807007,0.554315612123295,0.461033696958403,0.546654968826243,0.415901896930817,0.634278019431794,0.589236573579053,0.556177483041272,0.536066734021469,0.528658925454767,0.425787674482577,0.495674485814048,0.434070270524038,0.498645880094345,0.473731234301939,0.542373082986925,0.496032717703201,0.523522941482601
990,cane,12m,PO,0.491841568129101,0.509085589910245,0.561882345245558,0.44675998276711,0.545284523919912,0.42460394193157,0.637841436600166,0.58958802427748,0.558256094782291,0.546286063212524,0.535218058625654,0.42721857350974,0.501567827537769,0.42959692363676,0.495473203887152,0.48529098878839,0.54925304709662,0.500968040284394,0.521515984724418
-1000,grasp,12m,PO,0.505126111402549,0.527876475841123,0.406466636484667,0.457905209940486,0.449402411078577,0.470125958558898,0.461843480521532,0.529017621609356,0.464679408110456,0.54120678207741,0.526584247762878,0.496477463502888,0.517063098020619,0.493082208721736,0.498148277382499,0.413938110207747,0.494365188483375,0.460996737029097,0.612037824104577
-990,grasp,12m,PO,0.494965519879162,0.525353836395419,0.407642462815859,0.461349687103424,0.445539907569319,0.47096824375315,0.440636044581978,0.531782473520632,0.46041581483734,0.535117975109015,0.531272951938635,0.487873502872302,0.514368338587527,0.500767034407015,0.49942615688511,0.411489252004355,0.502954725549415,0.454620348777373,0.607169979592653
-980,grasp,12m,PO,0.486790267323194,0.523191812648725,0.409636619872786,0.467957831025505,0.443837205925415,0.467211745994529,0.423228025768619,0.534624606209803,0.459791830839677,0.528280061842565,0.532733107380726,0.478979856172082,0.509206403947053,0.508585219889956,0.50071290896221,0.409411664696236,0.511077581195796,0.448929696810649,0.598392046306733
-970,grasp,12m,PO,0.48201066497919,0.524123358445741,0.412146275384274,0.475831482313691,0.44521831069356,0.46164239460477,0.410560112917107,0.536163728912768,0.46327305709062,0.520671426211843,0.532334021437665,0.470489788979267,0.505877150304887,0.512861485677912,0.501843941149369,0.409411932223151,0.51513628054479,0.441506233313578,0.588384064713521
-960,grasp,12m,PO,0.480815136870871,0.529629271639439,0.413423324329837,0.483682629285031,0.448258180547484,0.455717574142393,0.401864909440114,0.535890703643989,0.466526099579029,0.513050624645073,0.53277141089015,0.464526452994848,0.503742533526272,0.514450047688304,0.503031191443319,0.410516841320868,0.5153238914613,0.434600563811969,0.579081174601385
-950,grasp,12m,PO,0.480260858256528,0.53775075193193,0.414847435903745,0.494910083448741,0.451307729247988,0.448082170248374,0.39837325418803,0.53578121672873,0.466846387095558,0.506087378470575,0.535318952721573,0.461065542857972,0.503708659041043,0.513905526353313,0.504445608714745,0.411717519341424,0.513422278891352,0.431634243642733,0.571527512546133
-940,grasp,12m,PO,0.480618866200601,0.545238138068187,0.41767335388824,0.5053026812414,0.452350575887607,0.440515190293344,0.394747948678578,0.535834918004232,0.464945453302459,0.500052997577786,0.536418123341804,0.459209759387742,0.502592678926694,0.512760939247345,0.504970955239583,0.41146755700048,0.507941749276096,0.43192504451946,0.563178029322141
-930,grasp,12m,PO,0.479175833900402,0.550626648847379,0.422336783385013,0.515023000718562,0.454263080384541,0.435068960284073,0.390713066143254,0.537121133559082,0.463459000920635,0.496094426216646,0.533024681814241,0.457389524572432,0.500204575985695,0.512320658213822,0.505803699089661,0.408089727681529,0.500761405204829,0.433084092223684,0.553194102453902
-920,grasp,12m,PO,0.474057733769263,0.555248903735165,0.430141832621779,0.519154351577789,0.458086282197109,0.435782556764512,0.386575759047535,0.53847967599538,0.463432894428806,0.493242316872683,0.526530655642883,0.456155517241168,0.498964373548759,0.514619807925709,0.507461805069298,0.403953921534452,0.492721558894629,0.435161553622892,0.539709199669301
-910,grasp,12m,PO,0.468161916888528,0.559469931979106,0.439328052560774,0.518576154548453,0.46162902777978,0.442208050409873,0.380938895827574,0.537726904061478,0.465139201851223,0.491336979734017,0.518790255562034,0.457100840088989,0.496359162680983,0.517291133741694,0.510146484641405,0.403552458643065,0.483138785682844,0.439192329301121,0.524414708986738
-900,grasp,12m,PO,0.463297595813243,0.560305368055065,0.447996120961831,0.515221151438125,0.46111365676929,0.450387588171006,0.374148010612832,0.533266790840227,0.468997100668094,0.487995784785223,0.512463754631516,0.458391076182744,0.489759147492467,0.520021601708891,0.512680408973856,0.407744603782188,0.476017311725502,0.445506260466259,0.509646181903252
-890,grasp,12m,PO,0.460138261532815,0.558496809244601,0.457087063768978,0.511712449427782,0.456885828613422,0.454378250906707,0.370517469231117,0.52681694316998,0.473979620434242,0.485284193819995,0.508211538528701,0.459616564232128,0.480815148600617,0.523078301167498,0.514657742318712,0.418924343604035,0.471975795940496,0.453368801510452,0.496661648338884
-880,grasp,12m,PO,0.458508541169788,0.556436311970083,0.465518855044514,0.513065382664711,0.450703465731257,0.451211866776687,0.375057209559544,0.518656972723701,0.480611722441906,0.485966477502695,0.506479363852112,0.459228798181433,0.472925498833723,0.526613875268141,0.516551948298692,0.433539124373677,0.472607878985853,0.463485099743499,0.485393512987483
-870,grasp,12m,PO,0.458242387047421,0.554815887049122,0.470138461553873,0.521002762618473,0.444116693344697,0.444527864363599,0.382911848309156,0.50859868602586,0.489149521086942,0.490729287286122,0.504303315664811,0.459296592050678,0.465693765922325,0.530127489063202,0.520030057136591,0.447286518275137,0.472110149846792,0.475005236999994,0.475861718722359
-860,grasp,12m,PO,0.458313003549345,0.552140149761403,0.468005349955222,0.530117819641721,0.438824999804531,0.439451128269931,0.39107074892629,0.495558188522914,0.500387396362939,0.49613318494458,0.497818177722455,0.458901544341181,0.455293719944038,0.532620059359207,0.525481698951063,0.458052332258725,0.469331501150188,0.484810597418942,0.468831616328547
-850,grasp,12m,PO,0.459028224047799,0.548271338509948,0.46019231591833,0.535939459922422,0.434722150353252,0.437350601790112,0.396862284558123,0.479615249212248,0.511542919017734,0.499637843247698,0.489785254286863,0.457770597709475,0.44700962041499,0.535268411464619,0.530712277412739,0.463790819995317,0.467553739104043,0.491864502090757,0.465961476712568
-840,grasp,12m,PO,0.459408930278493,0.542126806431218,0.451128445374276,0.536864602649249,0.430463809045311,0.436672879358028,0.399769859360446,0.462472028921029,0.520955009104409,0.502402084936061,0.484202795848199,0.455338544589356,0.444349052201113,0.538415810556091,0.536749074622947,0.461437591732025,0.467389863886365,0.496607103253873,0.467219512969512
-830,grasp,12m,PO,0.460566543513458,0.535200951951015,0.444727980798582,0.533555893878762,0.42843706853164,0.436939057271062,0.39892928662252,0.443988097662059,0.526905364390527,0.504583645962303,0.478829554021038,0.451712262347274,0.445303994203092,0.539656234148893,0.542680733228585,0.454359903996284,0.465105366306453,0.497492871741994,0.469068861832417
-820,grasp,12m,PO,0.461654154858907,0.528939638919985,0.441275395464408,0.526049985051106,0.430807560875027,0.442358599177297,0.397325738876079,0.424479253827543,0.530132925270509,0.506571392251794,0.472850903957735,0.448028629949274,0.446896821446158,0.539743552511909,0.547275980884737,0.4467240968399,0.460917542207881,0.496061404045629,0.468109694264415
-810,grasp,12m,PO,0.461207884412732,0.524157194589664,0.438597538849188,0.514842323534457,0.435466156042911,0.450124311051125,0.398451672898323,0.406792679227601,0.532653157440661,0.510078072538506,0.465810092779965,0.444057805475516,0.45007496770965,0.540724119248544,0.550237692736688,0.441889271902183,0.455639177585406,0.49431273757701,0.467387716878217
-800,grasp,12m,PO,0.460389292199745,0.52053094327788,0.434258993923991,0.502587583799356,0.439562300291872,0.456353318172713,0.402725353057944,0.39294991122032,0.53397943774892,0.511571815133948,0.458421559796834,0.441156025358408,0.455821467605624,0.541094989235672,0.549723862686896,0.444572577857137,0.450278813012944,0.493729223792713,0.470603172366132
-790,grasp,12m,PO,0.459966692798408,0.516843312398403,0.428906048516284,0.493709807208277,0.441286145517136,0.459810012283106,0.403707573190411,0.382404835049221,0.532993728865491,0.511296277310445,0.451843675813955,0.439883581419575,0.462626395133318,0.540437844973848,0.547947309190904,0.454007317924661,0.443308994779837,0.4928052090151,0.476928643011314
-780,grasp,12m,PO,0.460257891817076,0.514069204316798,0.426632072961785,0.489385464039958,0.439722706310143,0.462531025756727,0.396481260333642,0.375092575745538,0.531406624051425,0.51176609512244,0.445411694413355,0.442122261333616,0.468938013750331,0.537779285539845,0.545348005847933,0.467625448142448,0.434005199545686,0.490110552070679,0.483915685390513
-770,grasp,12m,PO,0.459609003413513,0.512321238639379,0.426825580961268,0.490337871957538,0.438230305963695,0.465687122264856,0.382029657490532,0.370124793451731,0.531996627990142,0.514528037303472,0.439081662386591,0.448636583490784,0.476981947993681,0.5338171646979,0.540529398128552,0.480209180933076,0.423578596091922,0.488483016949013,0.490032245876311
-760,grasp,12m,PO,0.457181292416459,0.511976785425315,0.430312410570769,0.494715365266267,0.436243147843437,0.468663257138517,0.368750117833452,0.369726706754655,0.53446212431079,0.520242651775922,0.436199983261469,0.458082548487168,0.488023210605922,0.529893586862436,0.534088886444594,0.487697567559887,0.415274652740663,0.490054246221267,0.495385210455123
-750,grasp,12m,PO,0.454019877085619,0.513552375574432,0.437602899542894,0.505005111549373,0.435157453909087,0.472694063681726,0.364942898281801,0.375488898658906,0.53810120119881,0.52378275777838,0.436073284147817,0.468508148636733,0.499117101993149,0.524830824467718,0.527071489228171,0.491013540632365,0.412191527222485,0.494733512453322,0.499971520580577
-740,grasp,12m,PO,0.45127957441877,0.516963918992114,0.44779446159343,0.515126689445681,0.434992043093948,0.478060410835497,0.365061447704461,0.386071678429148,0.543622280817752,0.522100032839818,0.438401024536449,0.478716159176766,0.506085558509094,0.516887648402498,0.522044790215576,0.489071542249839,0.414700257159653,0.50225401523861,0.503132197568678
-730,grasp,12m,PO,0.451022200126033,0.521425244037489,0.460790185496882,0.522258841650781,0.435274033235094,0.482889777925031,0.366461996301726,0.399785858286943,0.545825537422861,0.517358039479722,0.441127918182219,0.488165652154234,0.507869877005762,0.50771855752252,0.520621520769916,0.485360264367514,0.420001908091277,0.509842696026046,0.506723472674704
-720,grasp,12m,PO,0.452607419699894,0.528166857734582,0.474226392914667,0.525448473689676,0.435549863067601,0.485703166107566,0.366338817761539,0.415753056252499,0.545023973780256,0.513289495490163,0.441622133373,0.494897205283718,0.503432547466344,0.500831990408832,0.52143237067106,0.482649415836562,0.42636236034441,0.516773321774997,0.510480652865068
-710,grasp,12m,PO,0.454634213083942,0.536197042194649,0.48649622544443,0.526308838960772,0.436461315330585,0.488590913182996,0.361721236189369,0.430893708369376,0.543344199113085,0.513562602825669,0.44235562013932,0.501582799062268,0.494979190172637,0.497587787389302,0.522806782292778,0.486886073391762,0.434744419673958,0.523081594266723,0.514066172125763
-700,grasp,12m,PO,0.454362364061862,0.544874966317,0.495412635645398,0.528034871496054,0.440364060291453,0.491741155704461,0.353786934230815,0.440709709809726,0.542656656827531,0.518186640190879,0.442107594587218,0.507310974231388,0.486292696377495,0.497009565396997,0.524601458513323,0.494315991938398,0.4409349560176,0.527394390800668,0.517187723126348
-690,grasp,12m,PO,0.451713911155294,0.553453493790449,0.502930108858556,0.532192704848694,0.448444738661338,0.493349508115383,0.34623285631058,0.448136725371583,0.543001295216061,0.525163143995285,0.439837695697651,0.512541608591258,0.481144573119656,0.496771980129879,0.526644168378898,0.50208167857052,0.443614015331297,0.529688248708306,0.521918500531573
-680,grasp,12m,PO,0.447391909821361,0.558810948151108,0.509578101589184,0.539811025409742,0.459800823429883,0.493454212600106,0.341904806234892,0.457286790573618,0.542942132597008,0.533162174903015,0.436378672423285,0.51873792119665,0.479736085925175,0.494092908310536,0.528917872485711,0.507346637610708,0.444787603769453,0.52892153656069,0.527685900027654
-670,grasp,12m,PO,0.441746610592129,0.562316949641029,0.512182644822021,0.550868913421695,0.472046867332095,0.489466123680632,0.341193862412308,0.467884850453202,0.543324444414825,0.541299170874815,0.43268186159189,0.522718006385556,0.481378619828384,0.489929707857108,0.53123120913276,0.509085746479371,0.442935955224098,0.525031190399096,0.533905699594632
-660,grasp,12m,PO,0.436331904775792,0.562827299666047,0.5136572139136,0.565074697382321,0.485163270919117,0.483433973227082,0.340314506409578,0.477122701739724,0.541918386445323,0.546722951151192,0.431946658671886,0.522903680898015,0.484977753636919,0.485538666111768,0.53296449955322,0.506338623208029,0.439166801384126,0.520191455301723,0.538028191285484
-650,grasp,12m,PO,0.433785598834943,0.55933970227509,0.518407116010256,0.583848753796458,0.497378075397553,0.477718561247111,0.336130624308018,0.486260140205592,0.541416324766571,0.54963753970732,0.430275832841212,0.51877969647575,0.488306502569051,0.480994694673824,0.536154978967285,0.502690469388659,0.435531267511283,0.515579713350204,0.540199154542944
-640,grasp,12m,PO,0.437049629788102,0.55313605703566,0.524308618896567,0.605455028851637,0.506881014638803,0.474046627289075,0.335222765047031,0.497363687620194,0.541802389139423,0.550253446512302,0.422884985133346,0.511014967202158,0.492913343221451,0.475846645366729,0.540497546762553,0.501815774237362,0.4327086021906,0.512968296519567,0.536660968929548
-630,grasp,12m,PO,0.446303346140054,0.546938494124592,0.529832961943471,0.626551670571366,0.51224187941316,0.47148818998643,0.336741896007719,0.510016796336596,0.542491393756567,0.548721513608667,0.414315788533212,0.501880230892649,0.499003438975458,0.46876456780234,0.544545779198013,0.504838628809941,0.432649803907526,0.511119628994075,0.52671342945339
-620,grasp,12m,PO,0.457679174133754,0.538995763839985,0.532557411803057,0.640975264827128,0.514299402954759,0.463659819190136,0.341765523458577,0.522166158333024,0.542614735719925,0.547620500977703,0.404033941081731,0.491972338461433,0.506531738990956,0.460140614905605,0.547538788089338,0.512788752442946,0.437741278022377,0.509306436738214,0.514780314944319
-610,grasp,12m,PO,0.466975308441936,0.530008894767325,0.529881680113662,0.647749371915946,0.514206085655628,0.454166690474268,0.347289430955275,0.531969980995893,0.539427368834373,0.544988836123039,0.393337206804163,0.484668723639353,0.516898968036781,0.453457940979132,0.54905824289855,0.526174262659198,0.443999237254925,0.509845795251918,0.506396276891618
-600,grasp,12m,PO,0.473219785647734,0.52137188808333,0.522158324791273,0.650879036878503,0.513514731013566,0.451688662038256,0.350649894035357,0.538854968837914,0.533516373252675,0.543202366959075,0.38306883051118,0.479976025669463,0.529633838762413,0.448486937500677,0.550363398791574,0.546096686034685,0.449486970363337,0.513689984334593,0.502251875036092
-590,grasp,12m,PO,0.476742720845254,0.511455689761821,0.512630228870296,0.651121217363079,0.513220647193267,0.45900774302099,0.353765942298566,0.543597526111849,0.528434875357337,0.541928624316897,0.374781989550287,0.476788197010314,0.54201895636011,0.445762630253668,0.554144144608795,0.568444832585766,0.45607716429121,0.519025385269364,0.501625606064506
-580,grasp,12m,PO,0.479027728665735,0.498623644839922,0.50702319536428,0.647302911077648,0.51222624968108,0.466679732059269,0.360456248890419,0.54697806199355,0.524760135073091,0.541102041487162,0.367453652426066,0.476276691873726,0.548676130372905,0.445660590328463,0.558168401934519,0.590573420965023,0.464142854998918,0.526213537614286,0.501323160690374
-570,grasp,12m,PO,0.481367156374764,0.485362634742319,0.503486491217891,0.636822619266576,0.507374788497785,0.470675132270962,0.371848104975667,0.551473732194598,0.523434682340934,0.541293904959868,0.357446534537385,0.476671110952036,0.549099704014131,0.448270862865841,0.559648328117719,0.610657758925122,0.474009118304918,0.53191403777399,0.500295273542131
-560,grasp,12m,PO,0.483115381345985,0.472674906686906,0.499289692959396,0.620704427855906,0.498267339566117,0.472946339819898,0.382227222605826,0.554018254001732,0.52405929201194,0.542126488211436,0.342962081042898,0.476292019273664,0.547261347550058,0.452542668480985,0.55885292419469,0.62717865418077,0.481917584132037,0.535948848102063,0.498152695415812
-550,grasp,12m,PO,0.483394680095172,0.460059860941556,0.495623709152869,0.602404424801138,0.485989544851137,0.475932681271352,0.389934295799833,0.553949843420507,0.525069502029498,0.542199620441923,0.329768861355922,0.475625103038655,0.542768016626791,0.456170211324712,0.554424589101299,0.636727356002742,0.490753856519745,0.536777972472472,0.495743105152355
-540,grasp,12m,PO,0.482875123280784,0.447247467097508,0.490544053549409,0.585457821396486,0.47337149106981,0.478742125739436,0.395322880536771,0.554553259811268,0.526175687819781,0.541786958097075,0.323617617643596,0.473550250112079,0.53445231303058,0.457877785076588,0.547351965473249,0.641697341684674,0.499737944316372,0.535751213139173,0.494131858602472
-530,grasp,12m,PO,0.482381783717998,0.432938532381246,0.483398798350506,0.572523201314737,0.46225870116483,0.48446338147828,0.402348797281423,0.556685684175084,0.52637919163755,0.541619363316217,0.324679842269594,0.469873510504939,0.520877522744631,0.45805284256767,0.538464310804751,0.644463346554246,0.506892300221556,0.534499117620256,0.493817548572584
-520,grasp,12m,PO,0.483184447719221,0.419180043480544,0.475700192531272,0.563159636748453,0.453356819641164,0.491192603232764,0.411742533773689,0.558549794454547,0.52443265946905,0.54434227697326,0.331062371347019,0.465784320949022,0.502625192060804,0.456301448565199,0.528189327638721,0.645080894056036,0.510711285156399,0.533869331959106,0.494445425814711
-510,grasp,12m,PO,0.485214334215818,0.407682908463602,0.467495114056688,0.553391368144701,0.448938946739632,0.498102552921328,0.424834321877877,0.56093497907124,0.521616812875861,0.548983161162723,0.340886343231937,0.46272849826504,0.483605766672806,0.452689794498139,0.520107995049562,0.641421801280811,0.512209059348656,0.533693892312657,0.496199490714763
-500,grasp,12m,PO,0.488151803688327,0.40039554449546,0.456376653803037,0.54253355353217,0.449926199712261,0.503700468700583,0.441322468278551,0.565068062550037,0.519355236581884,0.554452751601907,0.35615127124761,0.461850021536052,0.468249569185288,0.448172327802324,0.513965379503161,0.634694600273616,0.512809986091205,0.533799061730766,0.498753038291041
-490,grasp,12m,PO,0.491501717596773,0.395589962132695,0.445594404969841,0.530109112981246,0.45728937093936,0.506015638980893,0.457533667088122,0.572009066432587,0.517254518152092,0.560026293517999,0.377354231970396,0.462055296592219,0.458546656781641,0.443507659604599,0.509177862568797,0.623609136391584,0.517172103377688,0.534982195933431,0.503328324769724
-480,grasp,12m,PO,0.49484706675317,0.393507376502956,0.435948546255665,0.514904169113491,0.469876527050877,0.503738355630262,0.47342482774355,0.579313900333037,0.515111765593801,0.563750202132186,0.401672645764319,0.462457292718842,0.452326554420768,0.439184775861415,0.504729587657289,0.608190653753287,0.523575026983299,0.535728109418568,0.509816438560033
-470,grasp,12m,PO,0.497588706959949,0.395569968104756,0.427111152853549,0.497990372980819,0.483897075141269,0.500013468415348,0.495310175337049,0.586131604414065,0.514521011955366,0.563190564494648,0.422764618493688,0.462108970089521,0.450165696614103,0.436248527971334,0.501086201218266,0.589010298564392,0.529536570969591,0.535972678876949,0.514775027959997
-460,grasp,12m,PO,0.498547986422525,0.401368018185805,0.423224664677226,0.482477997978877,0.49710240042218,0.492205242461229,0.51912560495136,0.589910822588331,0.517642127973439,0.557150625238505,0.443485983254578,0.460343540537405,0.449359011652968,0.436474660307774,0.496828674263768,0.568455895973573,0.535968002145328,0.536441435966786,0.518343651688873
-450,grasp,12m,PO,0.498447764790666,0.408023078270597,0.423253024376158,0.471253477604202,0.507962355915676,0.482076980761531,0.541372034470854,0.589930840209743,0.522841387374206,0.548994076315424,0.465213915312734,0.458088363224381,0.448895911269007,0.440197494356833,0.493736653207319,0.549910544291663,0.544912937718,0.537467486907154,0.519400683596181
-440,grasp,12m,PO,0.497861436496244,0.415211663900015,0.428259090043642,0.467048817798138,0.513936490991747,0.470160085269899,0.559138800969581,0.587885652099959,0.532474565321498,0.541762882723792,0.48760124867909,0.456915383957517,0.447423756483886,0.445659113553673,0.49201418870441,0.529744972877769,0.554787038945338,0.539258941633562,0.517725590891107
-430,grasp,12m,PO,0.497994926499664,0.424864062371265,0.437268855871313,0.471293208899619,0.513905098743537,0.455169079073292,0.567885255915221,0.584604162171985,0.541893242905504,0.536981788875596,0.506807720424685,0.45595908208233,0.446335290945944,0.452290418956229,0.490943086179936,0.509073406551204,0.56183091187894,0.541899638173911,0.515739855441796
-420,grasp,12m,PO,0.498415411467872,0.436679978577389,0.447174944949551,0.480426155278838,0.511297960851653,0.437898164183254,0.570070770447888,0.580901403536511,0.546504240586896,0.53278508176654,0.52224476918279,0.453967393564273,0.445724251493813,0.459081108473239,0.490448021676857,0.488246634961192,0.564950375563185,0.543364321020337,0.516527742938435
-410,grasp,12m,PO,0.498566435204015,0.449506714439355,0.459863640761087,0.489489107586156,0.507937288974999,0.421414657918793,0.567468593386593,0.576887323844119,0.54702238280975,0.530468125922224,0.533073846651072,0.451396441341786,0.445849169676028,0.464830702696208,0.490765631597275,0.47170751604621,0.564284770305624,0.543433074723847,0.520239550928159
-400,grasp,12m,PO,0.499350994926977,0.462019752037109,0.473756614814003,0.49691074352022,0.50436042079428,0.409015708610286,0.560982317889165,0.572571266668906,0.544222935849168,0.531014241170996,0.540851641097904,0.450325454944368,0.446489681101326,0.469661987467302,0.491158022756835,0.464869446085081,0.560532450727576,0.541047267749696,0.525449724275423
-390,grasp,12m,PO,0.50085973771162,0.473213950468865,0.486719774479961,0.500901560442807,0.498799908076862,0.403195496183065,0.554682343603405,0.569753816135281,0.538792787166718,0.533744897911252,0.549217379317081,0.451255616312654,0.446984643040665,0.473563858151005,0.491494793592155,0.467632515939057,0.556959078959368,0.536466297358799,0.530834837161064
-380,grasp,12m,PO,0.503713596172414,0.482461454722598,0.495261695982829,0.503226799100643,0.49288904236767,0.405335976300004,0.553036971478837,0.566672131023465,0.534273117395076,0.536723132632022,0.559155162428695,0.453067566201644,0.44615714140445,0.477192108167034,0.49031199538808,0.478409412744936,0.557995348713774,0.532719095356522,0.534275999730598
-370,grasp,12m,PO,0.506238491040508,0.486133249824509,0.501618723224581,0.506354970406995,0.489162667509505,0.414208917084027,0.551665385529466,0.56401554670077,0.532678394781662,0.538010510502941,0.570356218362406,0.454408626048981,0.444895744496949,0.480082922053094,0.488106087532748,0.490289632165364,0.561956971841485,0.530239802683159,0.534644909518835
-360,grasp,12m,PO,0.507911568662054,0.482618973927911,0.507484285838213,0.511722962206801,0.485548036785713,0.427107826639864,0.553271521478792,0.561386079770072,0.533738682317228,0.537070452101197,0.581357371158634,0.455093605227401,0.445390435365471,0.48093321541823,0.485638227728907,0.499840525906473,0.563956129936291,0.529480206339256,0.533237889878993
-350,grasp,12m,PO,0.508662249606944,0.472694607416563,0.511717953622748,0.516269247562667,0.48057391870162,0.443208685887391,0.558725313944542,0.55951889380652,0.53942620038751,0.53561936243767,0.591517664091609,0.454443133479121,0.447149799514333,0.481956583141343,0.481936292754717,0.507315354273221,0.563334783150587,0.530737526459695,0.531412919707242
-340,grasp,12m,PO,0.508406197910254,0.463929159486198,0.515625884636854,0.518877596155542,0.474648202385148,0.460074879151169,0.564323371795999,0.556458324883466,0.548960174390766,0.536894030994325,0.602642016301493,0.451979075634601,0.448596176592462,0.484992807003088,0.474522983573342,0.513953125921813,0.564510663902904,0.53351008105095,0.529417798015726
-330,grasp,12m,PO,0.506795593413574,0.459531264937528,0.519294573016562,0.521373412081498,0.467905682009398,0.476597258145752,0.569658585622586,0.55157071438915,0.557770009280418,0.539561329988917,0.613056596210845,0.448018114829056,0.450581330220835,0.489605119063242,0.464255700130009,0.525517761002154,0.570664327759098,0.535038088768623,0.525514524279616
-320,grasp,12m,PO,0.504276349739102,0.458704615706676,0.522763918085104,0.525507218977065,0.461389627518421,0.490931694471241,0.576887649054322,0.545232998871029,0.562110926975506,0.541777484672011,0.620587737383618,0.444813942918531,0.454859452203223,0.494604677054059,0.456055053518193,0.541931837540013,0.57670025396623,0.535678866059795,0.519189967093919
-310,grasp,12m,PO,0.50012610485416,0.458178513281866,0.524770330562395,0.532282699124967,0.457964119048555,0.503526581719202,0.585050468310801,0.538697311915583,0.564564694200156,0.544280434141753,0.625090097841257,0.440391267123523,0.460357530546487,0.499753117779141,0.450885609366514,0.561822676253036,0.57861876871792,0.535365341253858,0.513326091602055
-300,grasp,12m,PO,0.494021880957075,0.457497262043183,0.523162498881958,0.540503577758965,0.457206318152515,0.514959213417426,0.592385293683385,0.533892705173912,0.565131531399139,0.547510553229912,0.626089956978377,0.434253969985924,0.463507587741344,0.502180153474635,0.448158783993476,0.579516562465978,0.576573462103473,0.53477086057217,0.512003320316167
-290,grasp,12m,PO,0.487752684431535,0.455993296525718,0.515214536822027,0.54859760915494,0.459170127487759,0.524980565286783,0.59854877570521,0.530019610065696,0.565709073770293,0.549674937863549,0.626516849847675,0.427377813486828,0.469886397888138,0.50229679710235,0.445570798205069,0.59031060305138,0.571940738452293,0.536101358939861,0.513775648421715
-280,grasp,12m,PO,0.482746034454174,0.453485468420374,0.502000319983817,0.555036219098344,0.463050456631534,0.53442566664733,0.600938088993588,0.526572445247526,0.569898289055797,0.549156790830752,0.62617269929757,0.422841573850443,0.479656308057092,0.503205949192929,0.443621019715132,0.593083202880511,0.565590594296497,0.540479141372437,0.515828144754928
-270,grasp,12m,PO,0.478150322562574,0.451860411423715,0.488787467201342,0.560908492844147,0.468357276483431,0.541365366112961,0.599967392981226,0.521462482627691,0.573668215731396,0.545520219256518,0.621224895810979,0.420542334422642,0.489853310461584,0.505250226287317,0.44365247741548,0.589491137553519,0.558425152456148,0.54594152608996,0.519062462936118
-260,grasp,12m,PO,0.47619130687135,0.449782359725605,0.478091327965355,0.566068097841794,0.473230748972667,0.545649004344245,0.596537021571038,0.513004991074078,0.576315498724992,0.542945521884095,0.614933496540343,0.418513936127409,0.502124471352817,0.508205378724691,0.443911200661373,0.582998208990595,0.552962632715647,0.551015981525889,0.523050294867529
-250,grasp,12m,PO,0.475248010231301,0.445514825801245,0.468571687237712,0.569837106051146,0.475858574168044,0.546503875339858,0.589966646311381,0.501555492893648,0.580043156678368,0.543716838348792,0.609497135424647,0.415088196297686,0.515705744084532,0.509867817114363,0.445906840767829,0.576073929048312,0.551977318366985,0.555230609115538,0.524958144842966
-240,grasp,12m,PO,0.475500075947066,0.439537796529309,0.462892788706958,0.571863856753732,0.47633827075921,0.542605936890998,0.583220970602668,0.489175876296158,0.585688056625556,0.545585795142829,0.605046563501526,0.412122630056248,0.530572709008909,0.508920627734725,0.449482832123061,0.56707130642993,0.551507689020411,0.558097494333725,0.526047564322079
-230,grasp,12m,PO,0.477186510864723,0.434778279262881,0.460511759338859,0.573370882394655,0.475048932323402,0.535100017556386,0.579609700523856,0.478519070574557,0.592948143935002,0.549284141310117,0.599973916038897,0.412579777156433,0.543235449997452,0.506298650100721,0.451028243029012,0.557333175683682,0.550473298903511,0.560371902778181,0.527313775807888
-220,grasp,12m,PO,0.478841523481788,0.430088802710458,0.461176282970442,0.575893960881346,0.470581127298663,0.527599918141029,0.578260119710986,0.46935832375601,0.597104968406579,0.553969730927015,0.591037045656478,0.415116447297891,0.548924443132075,0.503448251907604,0.451627951623965,0.552127651606183,0.548750177112515,0.560765479267767,0.528786026871315
-210,grasp,12m,PO,0.477722068322871,0.42633756351466,0.466225494544734,0.577502190352515,0.464568175161338,0.522922376378388,0.572705251547412,0.462374390354342,0.597497254082124,0.558475330822329,0.577964055654764,0.419849029724679,0.547342396517885,0.499226795811274,0.451898624875808,0.552195386093728,0.549228479591268,0.560202710688984,0.530839023085637
-200,grasp,12m,PO,0.474677562995535,0.423399037938781,0.47639239711195,0.575152738734147,0.46163449108097,0.519987859716547,0.5610837426431,0.458086145343771,0.593073284633278,0.563314544039588,0.565005317287819,0.425354783837585,0.539672858607419,0.493056985414905,0.453640138922894,0.556692558689038,0.554293872246318,0.55702510478358,0.535801045947225
-190,grasp,12m,PO,0.470897914003418,0.422360970786097,0.488695387821907,0.569363224099895,0.462837143527297,0.51778440427969,0.546659998681492,0.459219818924682,0.583136781225971,0.567275388477689,0.552266137921542,0.430730705418201,0.53062428737683,0.486544151796401,0.456968233673317,0.565630016427623,0.563912622234872,0.550141374951101,0.539946033555189
-180,grasp,12m,PO,0.466337360367031,0.424253843716045,0.499069726781546,0.562090611974764,0.465722553899649,0.514624505890255,0.533324500814993,0.467636326493892,0.569997811777851,0.568645810895429,0.540774540538997,0.436231300063696,0.523037319831065,0.480605474031229,0.461719766853603,0.574983255657884,0.57484480424441,0.540125526448445,0.543939392036061
-170,grasp,12m,PO,0.463210212160529,0.430017857759728,0.50342290310454,0.556596787616875,0.4684830182703,0.512445441643601,0.521847328300614,0.480771250042973,0.555328990610333,0.566890122672291,0.529597080661654,0.441222670624509,0.518560351917829,0.476366035046153,0.468334008974226,0.579438445315305,0.583834385833851,0.527379598614277,0.546495551817866
-160,grasp,12m,PO,0.462002406672186,0.437828626320267,0.506867415887712,0.553916743497558,0.46957457651118,0.512866553933467,0.511445542758892,0.495880207131014,0.541178993334127,0.562880820103133,0.518947771864221,0.443003214255562,0.516976530112994,0.472753845058363,0.476566942556716,0.576982561072544,0.590207763299698,0.514715304501626,0.547353642497
-150,grasp,12m,PO,0.460908191852652,0.44053633278554,0.510434409762847,0.553453177190909,0.46987337026827,0.516722124018398,0.503777811754144,0.511582196099221,0.526695395872811,0.557086947956018,0.506824550294704,0.443860838128368,0.517254142263276,0.470690599553108,0.485438334060501,0.563696419446417,0.5929564123269,0.502925051773969,0.547482238859318
-140,grasp,12m,PO,0.459911358114415,0.438262784779201,0.515172285516474,0.554782489649093,0.47171578232419,0.520340302637352,0.498459998212813,0.525668837982223,0.512010477355464,0.549691198449285,0.497269505427393,0.446048236952389,0.520158807171477,0.468862992576172,0.492947700736477,0.543413109948801,0.58869325215549,0.492361246470625,0.547862803715538
-130,grasp,12m,PO,0.460223453869734,0.432764898689557,0.521749162905806,0.555670464905297,0.476679242111805,0.520465945734799,0.496231264072094,0.535005628277931,0.496690580648009,0.543017058756457,0.489567369718577,0.449280048396228,0.523511804027182,0.467720279529224,0.498290442423335,0.524101042765732,0.575459453126296,0.482056343732007,0.547352380774425
-120,grasp,12m,PO,0.461697012899345,0.42451915942966,0.529871430710717,0.555352204466186,0.484292108467822,0.51736488195557,0.496207924825407,0.542171638216976,0.482115409608866,0.538432357301719,0.482999656421104,0.454087381682723,0.523884905499748,0.467153323844131,0.50317530019165,0.504011245645107,0.556155238828399,0.470799202000998,0.545950228331509
-110,grasp,12m,PO,0.46395429515663,0.417509227722265,0.536348255248591,0.550656340741806,0.489766871623539,0.510075176796356,0.496284177101728,0.549368624916863,0.472477902363166,0.534850274133186,0.481859903707046,0.460954174945364,0.520368384891746,0.466751064225265,0.508466638574528,0.482100734367085,0.534088125702658,0.460244515126033,0.544491031050115
-100,grasp,12m,PO,0.465886332363613,0.414622874603522,0.54208174707306,0.540412171666525,0.491448547763794,0.502512253796066,0.496482241952485,0.55583142635161,0.470956405379549,0.529233396286992,0.479900286764957,0.46702320909747,0.513026537785738,0.468418738969516,0.513924625645035,0.459510374120689,0.512367570691733,0.452995243129086,0.543400590707412
-90,grasp,12m,PO,0.466967206605952,0.416012334726503,0.545092004726701,0.52801755264835,0.491961401631189,0.495227998725176,0.496890456402829,0.558879591974088,0.473000990885559,0.522990382755012,0.474799854412172,0.472580416829094,0.502500283516725,0.472421341636658,0.520496455021518,0.438321525630226,0.494296162266391,0.446811484054528,0.541648682556907
-80,grasp,12m,PO,0.468039593415069,0.417828313842482,0.545943633768424,0.514764307600525,0.489041395634906,0.490696028694621,0.495478893518607,0.557217464004161,0.477754486268612,0.518548009175243,0.464947231121959,0.478530573614925,0.488965196645661,0.476810976607619,0.526948717920359,0.420045855227696,0.48199148856357,0.442659402941048,0.537401937240654
-70,grasp,12m,PO,0.468676166866694,0.418881758431569,0.547100800775322,0.500986321334512,0.48270735665118,0.487105893502009,0.49232642923648,0.552494776797832,0.484647674602819,0.518985661332836,0.454707748524846,0.485052886825371,0.476285017931122,0.480575310241269,0.531164025578807,0.405827390509508,0.475009344762321,0.440898662039032,0.532163801320105
-60,grasp,12m,PO,0.469857889240732,0.420852368705665,0.548221935875598,0.490008771599889,0.474509764450235,0.481463208752216,0.49065248917893,0.544420967311312,0.494048408219433,0.522057686036177,0.446315122961359,0.491844775749621,0.463443675593963,0.483947275397474,0.533391918616906,0.395611091310265,0.469225060528928,0.441514721931338,0.52766333578719
-50,grasp,12m,PO,0.471631394361552,0.423868810216276,0.551054066243797,0.480829096491744,0.46630142204448,0.47416511925827,0.491504484408632,0.534173514088681,0.503423458264362,0.525980214269444,0.443029239414889,0.498654908960723,0.449587109525689,0.48719936438099,0.534989971480438,0.387566671522451,0.463549454652626,0.44357152843726,0.521385944762224
-40,grasp,12m,PO,0.473536673814248,0.428461736531335,0.558318570407168,0.474433231798993,0.459089062449313,0.466083150952984,0.493657796406497,0.524618074228359,0.512580846921876,0.531718390836492,0.444794752962653,0.505423468756761,0.437000969736125,0.489367555847305,0.53799747058418,0.37973740585497,0.460870290520809,0.447621931954916,0.509980779127215
-30,grasp,12m,PO,0.476587908548287,0.43222876713917,0.56585715111127,0.46978783232293,0.45328275731137,0.459696857128397,0.498278340918068,0.515324292096878,0.521677673734615,0.540412207126549,0.447797702354848,0.511394347936523,0.429883916428727,0.489302193777401,0.544760304649512,0.372624716592296,0.463821562772305,0.452515994424475,0.497683062890569
-20,grasp,12m,PO,0.482031574257734,0.435614144467836,0.570711355419618,0.46689243274135,0.44980522289963,0.456236850366947,0.505302518573389,0.506674881246577,0.531499617464564,0.551389283565469,0.453172751655026,0.514959938512998,0.428070547265429,0.487117897624062,0.553168781449961,0.373033393061822,0.466592939316753,0.456084948145811,0.487049787759986
-10,grasp,12m,PO,0.488061627827639,0.438115714136803,0.569956424760947,0.466242771943776,0.449578971255041,0.45686634771641,0.511244665996789,0.500232160438016,0.543133275537562,0.563044341657153,0.458972804040581,0.516408782561992,0.429343537812543,0.484167942610821,0.560300982573585,0.380181174025996,0.467875727739461,0.459350186515993,0.480597681511549
0,grasp,12m,PO,0.492022143875519,0.43919347437367,0.56491641367951,0.46747382960215,0.454913186568782,0.461461632459982,0.514106226523452,0.497560265393617,0.554277836579878,0.573158580169137,0.459552179648475,0.515546280872706,0.433784624287264,0.481525898010499,0.56447902567131,0.387336200797859,0.466042499760579,0.461726401218727,0.480444263776932
10,grasp,12m,PO,0.493769417309088,0.439597879588107,0.55857607501002,0.468923767384748,0.466122547592662,0.46750513093773,0.514744956467007,0.497779105182933,0.562452379889045,0.580614317853202,0.454860417512637,0.511678615429407,0.442240996615936,0.478968941916089,0.56865309064592,0.391679802746583,0.464231187257988,0.464149410288608,0.485465573022673
20,grasp,12m,PO,0.494168418232173,0.439688864963652,0.551416794698601,0.469863176016454,0.481501552898555,0.473978054468435,0.51350320955887,0.499561132810615,0.563807892665137,0.587110831152212,0.449524603816159,0.505888593937205,0.454565405535946,0.476333728288923,0.575524320358876,0.391732729210755,0.464018304553949,0.468982650345885,0.492694807431997
30,grasp,12m,PO,0.496217261995644,0.43909616041105,0.547734633280096,0.471187174094482,0.49715875159263,0.481382234365014,0.513307472093783,0.503291212253472,0.557572020104191,0.593433452880455,0.445675780564769,0.50004110821268,0.468986260233794,0.47374257996247,0.583883252516884,0.390107504788501,0.465700765816273,0.476497839523125,0.501547342118496
40,grasp,12m,PO,0.500565612789662,0.438005155347988,0.551374393773067,0.472415667601333,0.50831192630702,0.485431563759792,0.513009537352567,0.506980226825192,0.55013886657641,0.59837410948539,0.446810319694381,0.495266878763186,0.481853109571135,0.470759871415285,0.590724878142054,0.388801794578633,0.468179181753556,0.484110793297475,0.511537301996207
50,grasp,12m,PO,0.507265138341283,0.438490916056765,0.560142754829244,0.47205482180382,0.515327947582116,0.480992153229813,0.513589330538076,0.511177446640976,0.541438193832942,0.601671292499858,0.456700623495869,0.491611741799702,0.490141676325435,0.468077489560928,0.594259961658134,0.38804931505493,0.470136599955813,0.49116699144173,0.522500135139063
60,grasp,12m,PO,0.515238399486666,0.440121851684869,0.56835882535567,0.471612906476052,0.518790429411966,0.472852775429323,0.514251409409055,0.516891604441394,0.532915247856364,0.601186736035429,0.473938527643729,0.488517582120221,0.493962922619926,0.465039583257688,0.594752408307275,0.386862788996015,0.474012494431721,0.497567679984085,0.534135059434676
70,grasp,12m,PO,0.523259585885396,0.442875052524469,0.574382504758275,0.473180261347447,0.517792685474174,0.465542042934778,0.51657656704842,0.522059933541134,0.52418076449698,0.597727137113517,0.493563273740374,0.485656726080855,0.492636582064363,0.461077942508553,0.591334806789913,0.383693390522535,0.479035389407288,0.503685238083643,0.54531012567391
80,grasp,12m,PO,0.526403557103179,0.447822058120266,0.578741286323036,0.476815871642806,0.513930469153069,0.461555757528124,0.51993890609067,0.524627585183991,0.514375066472729,0.596284099536959,0.512923486658253,0.484132136635759,0.489557245774486,0.457880221988177,0.584624543010562,0.378155605564226,0.482220521353106,0.510830926220378,0.555688648441523
90,grasp,12m,PO,0.524504288603918,0.454482826825821,0.583434675180325,0.479827083610081,0.508540123239896,0.462325653495911,0.522865688738043,0.523203939628944,0.503283678620359,0.597689514239064,0.530032496806287,0.485629465049498,0.483512606777264,0.456420894282271,0.574959019067294,0.369171674517382,0.48133628482601,0.517842255891758,0.565147586446976
100,grasp,12m,PO,0.519671541299499,0.459621018558023,0.587869411941526,0.48016863555564,0.503464358536674,0.465336860874914,0.524321029464252,0.516633713443819,0.492676357751111,0.60038639579569,0.540672972697971,0.490783527089162,0.474630439901153,0.455600735499799,0.561744153708129,0.358195293905827,0.477267765904851,0.524332172241648,0.571904404702303
110,grasp,12m,PO,0.512394006014587,0.459903399659183,0.588642386320947,0.480211096117491,0.502044835015961,0.46983270473383,0.521162906841171,0.506463888990809,0.483428021749737,0.602557335566219,0.544446570695319,0.496868328219961,0.464825619656362,0.454276546571462,0.546704487606065,0.349527958335985,0.47565048006363,0.530620907925873,0.576722727936295
120,grasp,12m,PO,0.504522694357936,0.456522503325103,0.583175367996811,0.482856665279629,0.505681087847556,0.473732258587371,0.511840986893281,0.493859592951892,0.478261198983095,0.604323777287923,0.540330242735749,0.500750230873205,0.456270413559922,0.452295754134515,0.533373889649004,0.345570712052628,0.479262617682485,0.536015106796844,0.578205182382382
130,grasp,12m,PO,0.497062100529642,0.45281322772397,0.575484377132066,0.485256621244022,0.509929090258987,0.476167926269938,0.497482056269187,0.478517453696702,0.473824796812088,0.604561967742317,0.530739299390478,0.501046272754625,0.453252934945339,0.449704350443493,0.522306413304449,0.347346312696364,0.48770410168712,0.538637362589377,0.575753727004653
140,grasp,12m,PO,0.49156815933684,0.449526139569021,0.567986759795429,0.482303641330226,0.513338366742229,0.47805977634171,0.478381721524944,0.462720989019838,0.47040510854408,0.603606116915958,0.518820542561258,0.498196412118276,0.45470730169783,0.447106546405575,0.514113669191075,0.359257343356153,0.498953418582512,0.538749395388374,0.57034261921019
150,grasp,12m,PO,0.488585735368817,0.445913824733385,0.558855130012484,0.47822023387998,0.514884034871703,0.4770105040369,0.458188509953618,0.45131777480806,0.469810945132079,0.602010191675189,0.508412327110029,0.492367065308113,0.460200201945903,0.443331046880587,0.509630407655438,0.380837863333564,0.512819655192011,0.53556976751009,0.561857858875811
160,grasp,12m,PO,0.487115920667599,0.441189132936431,0.549535783989905,0.475519883839283,0.514779110574402,0.471995153566736,0.443278436838423,0.446659142733473,0.469799243511046,0.598034398566108,0.504576981394032,0.484949915871118,0.469078254074707,0.43805067939486,0.50871065100776,0.411192618867542,0.525356188355944,0.530399374497738,0.552766783194507
170,grasp,12m,PO,0.48477586142932,0.434326230398035,0.542523383683056,0.476350965822896,0.512846862475768,0.464969803620553,0.431471847096797,0.448856860055842,0.473221944782589,0.593214448292669,0.497517487937352,0.476769770765932,0.479214617407639,0.432690249536476,0.507614291004629,0.445480671139646,0.530652464207668,0.525833176117519,0.544587184880677
180,grasp,12m,PO,0.482166135229521,0.426224671146653,0.53683552888692,0.480977790230195,0.51071716506856,0.458092400830648,0.423638490987418,0.454358305507203,0.476351590703527,0.589704645096477,0.479955123919574,0.469301240004836,0.486182483145967,0.429455084122504,0.505553345795182,0.48184172937959,0.531452980645532,0.524176257270214,0.541591544561868
190,grasp,12m,PO,0.480217652404744,0.418990943320333,0.529529251557299,0.488801511523878,0.506657350544372,0.454595958992308,0.4218813551819,0.459636708126537,0.478373119205314,0.589476616609816,0.455960979167997,0.463178068941276,0.487307675009775,0.429518080968819,0.502383039571046,0.518542872559996,0.532456221919403,0.524685516580961,0.542300691234483
200,grasp,12m,PO,0.477987489509473,0.415075910034145,0.519538885788685,0.498962768518936,0.499494376921339,0.455323535562744,0.42476045899816,0.462300921878555,0.478072534709246,0.58940678488093,0.431823384456982,0.458360822923939,0.484007855122043,0.434057058411067,0.4963822903695,0.551786097391455,0.531059705226066,0.524400997639322,0.543292073296426
210,grasp,12m,PO,0.476339579482775,0.414900214950156,0.50962748161736,0.51222443677381,0.489054886638239,0.455708311902019,0.430071865152327,0.460853867108209,0.475844692490686,0.588575991655363,0.413490893718753,0.456029092503009,0.479766239681667,0.440360200322498,0.487629463590123,0.57930740779069,0.526700728693819,0.523803218062997,0.542670687672936
220,grasp,12m,PO,0.474777584253907,0.418180689798944,0.500313066794432,0.529613676903609,0.476238775191113,0.454799981873559,0.431851574093057,0.455696149298201,0.475010318204771,0.587892447171357,0.402205317976525,0.456290813942511,0.476215585794839,0.445721573864554,0.47908345386766,0.600596046434521,0.520655704478229,0.524599085420697,0.539370000802291
230,grasp,12m,PO,0.472092866297753,0.421040535795429,0.490327098680032,0.548722751974898,0.461706514061979,0.454932521563872,0.43182405521244,0.448607422170345,0.477589678517799,0.586830131061318,0.398285540142667,0.459029454159199,0.471491504685665,0.450829531731175,0.470240508369584,0.614595317849991,0.516919047984653,0.525789646924076,0.532242542164882
240,grasp,12m,PO,0.469663156139594,0.42421863141718,0.481973243964169,0.565261071077424,0.447249832568533,0.456915616136885,0.428395197877252,0.439642573243345,0.484021539077044,0.586579807199555,0.399583571493979,0.463764043571758,0.465949846936561,0.455338061200565,0.463123681008284,0.624466201130451,0.51569577318943,0.525595156887737,0.522549347366443
250,grasp,12m,PO,0.468726128474867,0.426559629951253,0.475062897623757,0.577635909138667,0.436286263229032,0.459513747201218,0.421946292434245,0.430636057623002,0.491943874630327,0.587607345012879,0.404781181213687,0.470070765331961,0.463404739351718,0.457291306397154,0.459812212942253,0.633395032769936,0.514949635438017,0.524019609798366,0.512692240168264
260,grasp,12m,PO,0.468687896711609,0.428658883617972,0.470195235174844,0.582529436558182,0.42794036616877,0.459848285745408,0.415988761326897,0.425203392574969,0.498303371530017,0.586588232373355,0.411986299680866,0.478010738584202,0.46505084087633,0.457712330668801,0.460070908574957,0.640313748874699,0.514437215287386,0.522411161134818,0.501931617075071
270,grasp,12m,PO,0.468701360621842,0.430532044125511,0.46204698936295,0.581695551534524,0.422934541495827,0.459271623316561,0.412073791893301,0.425906434961742,0.501627885545573,0.585449854045904,0.418698415666888,0.485436384699935,0.466663637195554,0.458903970977015,0.462245011939064,0.640187213477162,0.515386650328797,0.521925834122077,0.490052418724341
280,grasp,12m,PO,0.469052546817829,0.432097685473473,0.451527034852932,0.576948694679956,0.421037822898873,0.460756299866661,0.410522237891203,0.42814291729926,0.505186606612031,0.586626786432897,0.424638651181146,0.492354596073827,0.465420418188163,0.460553730988388,0.464314230423281,0.63462796000393,0.518949158521002,0.521606668323325,0.480870603468336
290,grasp,12m,PO,0.47014064152387,0.433297669185108,0.442724607852068,0.570332481312008,0.423452785765901,0.463709347188718,0.412259065765233,0.429624773330239,0.509047145227954,0.589528265573817,0.429142024739035,0.497744762906521,0.464595487660852,0.460860530979817,0.468939092991374,0.621455110826576,0.523989031525873,0.519597797894363,0.475025302086842
300,grasp,12m,PO,0.469569217159735,0.435800661333939,0.438530970994643,0.562925800336225,0.428954979590926,0.46725060142594,0.414913714218984,0.427753851034902,0.51322806037093,0.592459829898037,0.435849094127336,0.50155228382286,0.465746497531576,0.460348787208497,0.476524587394272,0.601138146645553,0.528232393957915,0.517946539665832,0.469424925980444
310,grasp,12m,PO,0.46785221072475,0.441129581991773,0.437929516083327,0.55233885961114,0.436521357901871,0.470318101749739,0.417386987345824,0.424367136435755,0.518707664169612,0.594395874907428,0.444383990821889,0.504241994260797,0.466187731154936,0.458623360020439,0.485689510733837,0.581142344497294,0.533080841887217,0.51611226745483,0.46475127874817
320,grasp,12m,PO,0.466600662152111,0.450137758857949,0.440955689030467,0.538254055382878,0.445524538381731,0.468145258898119,0.419985279779249,0.41868002830331,0.525380182074191,0.594642136262457,0.456460773497274,0.505466954773433,0.464422378682932,0.456513508219548,0.493168137522138,0.563554503831848,0.534644038154476,0.512166864174736,0.45826022541332
