Time,Condition,Age,connect_overtime_LA_EEG_12_P04_CTS_MTH_chanpair_12m.mat,connect_overtime_LA_EEG_12_P05_CTS_MTH_chanpair_12m.mat,connect_overtime_LA_EEG_12_P06_CTS_MTH_chanpair_12m.mat,connect_overtime_LA_EEG_12_P07_CTS_MTH_chanpair_12m.mat,connect_overtime_LA_EEG_12_P08_CTS_MTH_chanpair_12m.mat,connect_overtime_LA_EEG_12_P10_CTS_MTH_chanpair_12m.mat,connect_overtime_LA_EEG_12_P11_CTS_MTH_chanpair_12m.mat,connect_overtime_LA_EEG_12_P16_CTS_MTH_chanpair_12m.mat,connect_overtime_LA_EEG_12_P17_CTS_MTH_chanpair_12m.mat,connect_overtime_LA_EEG_12_P19_CTS_MTH_chanpair_12m.mat,connect_overtime_LA_EEG_12_P20_CTS_MTH_chanpair_12m.mat,connect_overtime_LA_EEG_12_P21_CTS_MTH_chanpair_12m.mat,connect_overtime_LA_EEG_12_P22_CTS_MTH_chanpair_12m.mat,connect_overtime_LA_EEG_12_P23_CTS_MTH_chanpair_12m.mat,connect_overtime_LA_EEG_12_P24_CTS_MTH_chanpair_12m.mat,connect_overtime_LA_EEG_12_P25_CTS_MTH_chanpair_12m.mat,connect_overtime_LA_EEG_12_P26_CTS_MTH_chanpair_12m.mat,connect_overtime_LA_EEG_12_P27_CTS_MTH_chanpair_12m.mat,connect_overtime_LA_EEG_12_P28_CTS_MTH_chanpair_12m.mat
-1000,Cane,12m,0.510645339804289,0.557006542104995,0.516829226040123,0.556285599138269,0.525532621431444,0.543664796825626,0.564094685412676,0.5280408684747,0.521157010838735,0.531337749837467,0.548379339798959,0.508483196400913,0.527538830067876,0.527586891989573,0.539768735950337,0.540504227419391,0.51867023198742,0.517455658896231,0.530565741477482
-990,Cane,12m,0.509019502800953,0.5581129081023,0.519870921817234,0.556280832322567,0.523634951943259,0.541884328097022,0.563071083588856,0.528607631575893,0.524873538536335,0.53370931258538,0.552139825447542,0.508402257419574,0.527398395916297,0.526002491788659,0.539221861228861,0.540811112566176,0.51817858879926,0.519113077665883,0.530383458191198
-980,Cane,12m,0.509668457493405,0.55827496220207,0.52159221814776,0.557008626256636,0.521489834304161,0.542290834971512,0.559327337970125,0.528729356394317,0.522308702872094,0.533753137993891,0.551739204199183,0.510912089678126,0.528824937989432,0.525426823769051,0.540002596885556,0.539361902200706,0.5180257409988,0.518997973677671,0.534536897357475
-970,Cane,12m,0.509756142255,0.556597926651445,0.523678933461918,0.557989637066759,0.52076505013731,0.539587246607821,0.552389860696688,0.529544801582041,0.524124139759012,0.533189294315585,0.551313520034013,0.511491545490296,0.529196363723173,0.525297377893045,0.540243332925318,0.538949802797386,0.516951261327708,0.519529390770864,0.532977595017401
-960,Cane,12m,0.510138008727089,0.556298646965955,0.522692530820222,0.558531985981781,0.519914056935588,0.539597366778031,0.543128622583065,0.526991308907688,0.523210421560078,0.533204043337042,0.554154561412132,0.511544830890495,0.528306845517788,0.526132141396989,0.538375986103584,0.538487496119326,0.515147729857257,0.520950105788398,0.532010817684898
-950,Cane,12m,0.510211827584038,0.554446237035899,0.520896716242433,0.560691407727604,0.518905604705824,0.53932650521424,0.541431624226547,0.527461937053562,0.52252193763102,0.533822250108698,0.554868805781809,0.511826009849553,0.528822581726297,0.522927763212465,0.536199880267739,0.537442479014679,0.512804767020012,0.522634440145684,0.533627564616442
-940,Cane,12m,0.510822300368223,0.55330305981158,0.523207645977449,0.562393919162569,0.52089133094489,0.540125528771048,0.537020492098112,0.526488150729424,0.523775188329776,0.533885761097719,0.554890043266295,0.511818531007323,0.529484710978894,0.52128970858438,0.536364235307949,0.534619720718045,0.512141799503128,0.525266405531403,0.534145002317056
-930,Cane,12m,0.509366796726906,0.552643197646827,0.523606138008209,0.562754886446252,0.519680533885312,0.538200387609278,0.530627497440568,0.526890658498362,0.522431085331413,0.532810506164519,0.555839513133778,0.512222810812193,0.529313312597589,0.519986841378603,0.53548278432657,0.53210957693766,0.511056066448662,0.526542691486572,0.533701205095092
-920,Cane,12m,0.509783262748629,0.556575708918715,0.524324369877911,0.561850491980421,0.522318659308644,0.537657529950573,0.529817714412089,0.527510019513153,0.522088696429073,0.533234635526075,0.5544409033567,0.511554998890006,0.527769408010916,0.519305690260326,0.534471198553004,0.530099553057313,0.509498892581032,0.526286003763714,0.534040953953419
-910,Cane,12m,0.508196319217106,0.555376083240541,0.526876593701964,0.559301863927895,0.523777500250113,0.538405788402304,0.529951555704601,0.524801704962078,0.521480400356896,0.532645600313851,0.553341151681872,0.51201400165529,0.528003670327235,0.519777978841743,0.533523680646829,0.529474572233204,0.513879370020171,0.526746432198742,0.53339302435705
-900,Cane,12m,0.509286913675623,0.553724967303022,0.526538116030326,0.559288507173433,0.524441943895251,0.537323206849629,0.529025924507189,0.523771810673047,0.523665368591642,0.531336479666358,0.556056320087165,0.511034325286524,0.528932974428808,0.519548540110245,0.533838957765213,0.527367070334729,0.515191975224064,0.526691273861066,0.532055068333869
-890,Cane,12m,0.509047872920415,0.550537931923073,0.527906870319024,0.560060553760698,0.526775246107117,0.532652275170242,0.527534125339023,0.522818543293446,0.524074446460953,0.529795974046372,0.555100834151714,0.51086818291521,0.529094025754123,0.518771252820712,0.535602860581545,0.524089741664385,0.51588792205439,0.526613444810834,0.53294103145282
-880,Cane,12m,0.509591782517685,0.54985648082735,0.529792603819048,0.557604904551357,0.529139452683279,0.528656044663799,0.526811518249927,0.524082744954533,0.522082721416828,0.532661815481186,0.555506354250735,0.511167167142061,0.52932764385472,0.519506285718675,0.536119569899399,0.523162719087534,0.517597819499908,0.526868373752867,0.534120346549938
-870,Cane,12m,0.511498500389098,0.549709692631404,0.52994050326972,0.554883478947024,0.534281116244705,0.526548634324053,0.529740675713933,0.524099302937963,0.522452606070155,0.534653485444905,0.55496176505805,0.509434155099504,0.529195916812736,0.519508956043116,0.537617577804982,0.523676349567083,0.519401090685857,0.528458440989677,0.533799035296698
-860,Cane,12m,0.512643232785428,0.546520266171872,0.530845509093325,0.551698605830221,0.534794863981094,0.525950178461384,0.530233939475068,0.52304007042332,0.521465510132785,0.536068993424423,0.556751371809144,0.51095627361875,0.52961324271194,0.521483940186214,0.538869050319212,0.52038226944535,0.521905457756968,0.529885292625092,0.532549112919843
-850,Cane,12m,0.510852816816593,0.543521586107564,0.530678877460485,0.549763390515388,0.537879478503829,0.528313204356932,0.532151402738535,0.523213575092994,0.519815778606029,0.538567919537202,0.554105303339437,0.510215105174849,0.529014545040034,0.522649382009666,0.539941675867833,0.520135618242176,0.519836363899772,0.53010510686393,0.530460056964069
-840,Cane,12m,0.514397294072769,0.539553508415035,0.529187474138266,0.547067489433657,0.540626517453771,0.529240686543356,0.531534266406929,0.523013955106914,0.518443778464055,0.538901870485739,0.551025634924892,0.509623919334294,0.531205725397138,0.523305117428689,0.542292288624797,0.518270516098776,0.521264225890789,0.530137438457227,0.528560820611596
-830,Cane,12m,0.514996843192885,0.537893023496811,0.526051604269095,0.546585616247262,0.539106875130821,0.52756174387019,0.531856621671141,0.523177802266044,0.519735744685375,0.539866155031742,0.546309082223194,0.509329617581034,0.530980274589789,0.523378320882876,0.539725509913801,0.518829602354984,0.523149380100196,0.529990524921648,0.525649317063346
-820,Cane,12m,0.514589228740197,0.533156280940249,0.522813723931144,0.547556659790041,0.540592013275048,0.527621912343822,0.533594483788454,0.522063481477228,0.52002566943955,0.539723783221402,0.544486349377788,0.50979669145571,0.53001821813898,0.523377493206776,0.539708004518509,0.521024510517048,0.524762129540247,0.530466950445047,0.525657412410596
-810,Cane,12m,0.512915329181812,0.52982196347871,0.517682678456413,0.548211758174112,0.541422588591261,0.528202227354869,0.534786469747744,0.522421952438103,0.521364680370362,0.539593039425628,0.54186555703676,0.509424998489379,0.530085470436836,0.523321168980234,0.541896900570569,0.522799343769389,0.525298342386237,0.529640866170444,0.520274823105682
-800,Cane,12m,0.513112463490693,0.529003585173638,0.5156687029699,0.547655208319899,0.54026516187384,0.530480939683523,0.537684014782532,0.519958312420359,0.524743240667877,0.54051874872589,0.539834269142889,0.509581112970783,0.529723973893667,0.521385410340646,0.544259053990477,0.525694103405811,0.527048107088543,0.530439794770745,0.519035766786423
-790,Cane,12m,0.511480196745424,0.528620589034601,0.515163894447286,0.547486995805447,0.540862872428834,0.52850076255786,0.540898811751347,0.519097104506548,0.525307978141945,0.542524382751281,0.535812216054205,0.510725027221275,0.530783053281249,0.520453229907361,0.546027262012581,0.52832212162293,0.52725293200946,0.529838672042841,0.516872686823962
-780,Cane,12m,0.511975350902113,0.528100157722256,0.514342721018866,0.546885461361353,0.540025910874855,0.528052402033729,0.541182860222127,0.519310913682396,0.527908608437854,0.541603293554877,0.534854205693558,0.512632778405322,0.528941059723328,0.5190499977715,0.547809301466086,0.528372858091197,0.526668348080724,0.529592223994155,0.516293658318769
-770,Cane,12m,0.512623739835339,0.528519097980312,0.519326994608609,0.544329709241205,0.539649200644874,0.529639690325533,0.544056726534912,0.520691628548634,0.528340140333525,0.542416269345594,0.532613893407815,0.513580565890811,0.525986913467004,0.518185034131563,0.548034700369393,0.529083333462456,0.528388339910124,0.528753416819072,0.515959760374325
-760,Cane,12m,0.512437306677942,0.529850297066302,0.522579238813461,0.544016411148967,0.540342169276926,0.533840586679613,0.543960813892794,0.520799495309926,0.528945789646456,0.542788646436815,0.533161920694702,0.513940897124279,0.524932990179061,0.517858617140112,0.549370692816835,0.529817157032245,0.531973753350729,0.527409431211133,0.515129270884415
-750,Cane,12m,0.513081507426222,0.531031764414463,0.524374209744267,0.541241185749941,0.539825422166675,0.532645522263281,0.541599747982469,0.523408264612207,0.527311340485286,0.542807906945143,0.533936494539645,0.514046241295249,0.525674442650465,0.517150045865131,0.550239502330378,0.531189777327606,0.531023169661631,0.525246359714382,0.514652975048642
-740,Cane,12m,0.513811995496024,0.533184232952593,0.526453893004764,0.537876231016865,0.53906487553395,0.532189870817568,0.538371575918643,0.523833636404644,0.52938886871445,0.544479800101195,0.531825470389074,0.515618574228256,0.528139983163442,0.51708895338257,0.549970955629705,0.529426247118044,0.532060463302837,0.524739631049576,0.516006469107132
-730,Cane,12m,0.513560900064564,0.534678415259003,0.529090779339838,0.540105856940209,0.53718072795397,0.529795075417273,0.534244019181297,0.524735105723864,0.528620476925736,0.543090962283888,0.53020679210732,0.513757811209248,0.528960505903876,0.518319139325757,0.549242601406309,0.527400267727892,0.530061312622306,0.522696321718937,0.517845241545646
-720,Cane,12m,0.515529320800127,0.536129539409091,0.531888825046845,0.542051863484759,0.536530714886451,0.526912293913687,0.533870503612227,0.52651153125696,0.529206110374697,0.54420888102276,0.532950538768808,0.514520791207064,0.532111983064525,0.517789285897175,0.546887473069415,0.526487640646723,0.528751313097095,0.52080967887943,0.521213815588469
-710,Cane,12m,0.515885308163641,0.536421289351322,0.531806542219194,0.541601259061953,0.535687722855739,0.528966634300093,0.536316849368684,0.528172588786398,0.531500500435248,0.541605668944458,0.530549349631171,0.515684751526179,0.531767105314403,0.517340324803943,0.544938878405847,0.52544897266693,0.526158607144436,0.5188124013114,0.519278181465837
-700,Cane,12m,0.517154810427219,0.537956965610703,0.531418419491405,0.542811112923293,0.533486297551847,0.52681197698558,0.534997703897785,0.529375331584797,0.53224473581324,0.538154373797999,0.532879970308827,0.516052928444305,0.531547046428633,0.517445857152208,0.543940000631676,0.523434650506387,0.52092854819225,0.516411968960299,0.521416943129296
-690,Cane,12m,0.517641733100631,0.538442013540803,0.528852825585285,0.544278897501586,0.53199533406209,0.525552123271757,0.53403804949409,0.532212347396441,0.533194530959241,0.535486694055749,0.534277732316271,0.518955723185835,0.534251926362181,0.517671618131427,0.54172756667929,0.52180471795734,0.518642170354689,0.514438402981365,0.5212944103574
-680,Cane,12m,0.518004371743483,0.539450900839965,0.528987141950252,0.54543211391511,0.531373333788662,0.522313604032532,0.533933644561378,0.532797815432039,0.536406725854403,0.533834264081452,0.534553084468032,0.519975884729043,0.536113205568783,0.5177856380368,0.540261398600112,0.521367238681845,0.518313498884288,0.511546419731291,0.520767911853185
-670,Cane,12m,0.518734538934509,0.538822911445629,0.533253120400529,0.544143851877811,0.53321826383757,0.523638085348596,0.535336200333189,0.53075828065812,0.535110018625232,0.531537338823759,0.536450623664143,0.520290809719498,0.535527525772909,0.516687991760994,0.539261705343038,0.522533197754131,0.515261979608342,0.510998324910914,0.521399077710835
-660,Cane,12m,0.519554070305314,0.535842725354754,0.534459071721385,0.545465267146076,0.530236401289283,0.523587253991087,0.534979045375947,0.52837305845134,0.536112776577866,0.527766566961414,0.537716769056183,0.519660141849493,0.535981224889433,0.517965015439653,0.536685146792358,0.523157430519551,0.514402578494167,0.509692911634954,0.520984340083749
-650,Cane,12m,0.518894238026693,0.537700019216751,0.536604229855784,0.543469999333583,0.530164697372867,0.521909742983278,0.533712429865211,0.526816518725325,0.533198554118643,0.525128587786601,0.537458302007921,0.518610855838525,0.535927473001543,0.517998945966674,0.535930034144809,0.524655825011294,0.515853207998664,0.507807522781073,0.522711316568495
-640,Cane,12m,0.518787799454891,0.53890290595231,0.538300961573856,0.543121369131484,0.530878157467923,0.520910768793741,0.534079782243356,0.526577400937299,0.529421836653462,0.524032988934196,0.535532008685006,0.519582255347763,0.536273472649035,0.518505851954522,0.535705116329449,0.525869840980354,0.515714819212618,0.508864357990313,0.524255131140631
-630,Cane,12m,0.517150519061337,0.537626366954665,0.539209259158069,0.543237354398411,0.531709165872491,0.521350201460752,0.532539853815131,0.52537359725132,0.527631515171278,0.526215212045171,0.533697473530879,0.519587244527338,0.534470847865939,0.519375639387554,0.53513200147503,0.53002129473796,0.517473157983574,0.508987503192776,0.524272028067168
-620,Cane,12m,0.516158709994718,0.539319660321122,0.544584574634991,0.541029570000159,0.532010528582212,0.523844611178529,0.533273248308727,0.525959972937958,0.528614635950115,0.524788030699663,0.533788613113963,0.519394415548178,0.534154658649676,0.520323905468719,0.535743335552755,0.529435043618686,0.520263432593212,0.509122534955661,0.523705391752079
-610,Cane,12m,0.515867896264248,0.539861645611691,0.548972326820016,0.541703350202256,0.530227728104685,0.526099587747295,0.535122991474883,0.52517476769612,0.526700888569102,0.528799415663381,0.538798478908287,0.519977010885275,0.535901282229896,0.519583028960574,0.5378525544566,0.529245630598903,0.520990975941954,0.507820501432649,0.526344891984715
-600,Cane,12m,0.515961192986519,0.542684199001226,0.555034859538187,0.543518014216722,0.528009927928344,0.526658857602357,0.53085633806483,0.524984201592591,0.524318605257745,0.528048121138958,0.539173083406384,0.52056978343849,0.538422317278402,0.520721836169269,0.538472424437105,0.530892260380611,0.523684049444982,0.508140309243223,0.529935007938238
-590,Cane,12m,0.517058563459441,0.544103883840628,0.558500892025592,0.543771345173338,0.52878018942857,0.528972155526745,0.532076296246155,0.523459560762484,0.521177202844437,0.529165461333584,0.539865249709493,0.52302151877401,0.539716099603154,0.522318009036601,0.538054134143797,0.53254228971018,0.526887135095685,0.509342113539899,0.530011280252468
-580,Cane,12m,0.515307273608651,0.547084742703405,0.561636593712972,0.547334133794215,0.528374869747039,0.529373695028929,0.530358761184212,0.521780966998553,0.517836336075243,0.52810402127374,0.542338178428634,0.523901963810013,0.541610615866739,0.52244204836772,0.53954615266936,0.533996700036069,0.530085362824167,0.510874488312407,0.533013183453249
-570,Cane,12m,0.515347553856377,0.546748933617604,0.565055667101643,0.551755696478608,0.527294960717774,0.530103577958316,0.531053428473519,0.520717115564866,0.515660951803982,0.52884796957691,0.540495626271691,0.522995833781763,0.541657981928012,0.522990814109225,0.540724292354171,0.537447161853661,0.53322018105892,0.510648739211598,0.536006366580803
-560,Cane,12m,0.513823815940589,0.547519948120538,0.564090299105367,0.553155333932424,0.526969689351018,0.529737940365981,0.531525412976352,0.520166357104414,0.514383484668247,0.530299115527683,0.541778187609474,0.524312621363634,0.541182346927078,0.522751005703647,0.541734976211309,0.538480188549084,0.533193607134306,0.511361626898737,0.53368591635033
-550,Cane,12m,0.513041378056492,0.546910512995325,0.564639312956532,0.554792940226918,0.527991029872201,0.527922107559151,0.535465132763832,0.520668102732127,0.512599498181101,0.532093953812188,0.544235569949565,0.522770676333843,0.540707085071008,0.523267368535673,0.544857964783025,0.53940567236575,0.533941083943027,0.512507926924611,0.532389092458132
-540,Cane,12m,0.512587567848956,0.546951164803166,0.563159908582925,0.55518456437953,0.529733362620201,0.527361454257118,0.536510316180542,0.520348293294264,0.514795881044903,0.53308078116943,0.544624078291764,0.521515086910999,0.539578017953688,0.523075033884078,0.544976531790224,0.541756919407774,0.537723214588236,0.514617017665751,0.532145594843497
-530,Cane,12m,0.511530471778947,0.547399354684067,0.562366792817482,0.555843660801896,0.530676094347367,0.526295271726681,0.537468173013263,0.52138268928125,0.517948867671938,0.533539188633648,0.54150446895961,0.521851273286819,0.539200444580834,0.521683543813139,0.544344813656906,0.544384717903436,0.537910731568419,0.514361214448872,0.532097818804917
-520,Cane,12m,0.509465818583748,0.547564136794714,0.559520783830337,0.554675215981335,0.531019560441018,0.524778573261571,0.537614735929269,0.522534523465233,0.519686083751769,0.534687703327369,0.541365478778011,0.521909429058633,0.537522500030416,0.520838018999463,0.541340263546639,0.545487747639893,0.538000095901599,0.514138709190031,0.53186521660876
-510,Cane,12m,0.507512352201053,0.546587668164052,0.558920410069784,0.555605597286375,0.531877334673191,0.525169999059738,0.537956540191725,0.525067095649768,0.524305906847882,0.537346308622112,0.545934458380555,0.520785339552624,0.537614088437292,0.518946150526,0.540837535638443,0.544555858059061,0.535708646466646,0.514149360061484,0.530573349012881
-500,Cane,12m,0.507500564830192,0.546974726724168,0.559990177046352,0.553675506368807,0.533861826144699,0.523564151109493,0.538903493245734,0.527678224232081,0.527796883838215,0.53683434081233,0.546493641383931,0.519636921540775,0.537816312285161,0.519208351181497,0.538865824649693,0.543929268206894,0.532822010509358,0.51345280924063,0.527796263631726
-490,Cane,12m,0.505677960516588,0.548698022354952,0.559020334253181,0.550861434444792,0.535603565031875,0.522277830409909,0.543258798895923,0.532240786732833,0.533250115844547,0.536662837752687,0.550057808443485,0.518519245067063,0.536662846156343,0.518950199276501,0.536523109016583,0.545171193066098,0.528807428334245,0.512930109290644,0.524970291215457
-480,Cane,12m,0.505351018419547,0.549462938839273,0.560475019355812,0.547967466807255,0.536921856983089,0.522504250859739,0.547660885306095,0.532785433707822,0.537640967522041,0.538301551834946,0.551920527743918,0.517710344143545,0.533273332851697,0.518926843481651,0.535267066728589,0.542604545038882,0.526101170416,0.511454778817753,0.522424791407084
-470,Cane,12m,0.505287539367573,0.549408122994431,0.561856420795025,0.54412487658806,0.538483590492075,0.520808574925251,0.551452764952286,0.535246695109265,0.54023039837338,0.538596747214476,0.554743852251171,0.515398289941922,0.5329580707139,0.518371451110867,0.534829358025594,0.541649168362241,0.523460843230388,0.510000013993926,0.521557685361142
-460,Cane,12m,0.506542758102343,0.548510829897216,0.563465049232903,0.542000927869181,0.538961700071423,0.52133252016608,0.553837766998915,0.538213198457405,0.539435812551154,0.536605590972962,0.555453338415712,0.515421734447345,0.532513551395888,0.517640865745463,0.534632732318954,0.540905317307562,0.524927807467275,0.508709089362521,0.520676495177254
-450,Cane,12m,0.508922311709681,0.547717986564573,0.565513677385223,0.542698668939844,0.539938800429272,0.522321231616818,0.558775029761391,0.538008815693258,0.540053798403338,0.534129362608451,0.554448317914938,0.515156084947415,0.529832483486653,0.516566476909445,0.534016473155173,0.53829231603453,0.525172430204089,0.509363550447175,0.52183621398171
-440,Cane,12m,0.509572843544139,0.545384065822205,0.563659205670112,0.54236532571123,0.540943705120826,0.521234651740592,0.562070240165615,0.537238153247379,0.538698492367736,0.535903765771346,0.553498376555011,0.514158750244165,0.530143509643054,0.51331608954188,0.531353308263182,0.535396322997358,0.525027086451614,0.510272529208058,0.521013164838941
-430,Cane,12m,0.510695879134762,0.543646781794476,0.563346026462968,0.541326719127984,0.541792909222928,0.518573310641548,0.563634344175115,0.536569605173159,0.537608971505685,0.534692281584691,0.555007890446541,0.513376519279021,0.529874434653694,0.512122609160359,0.532118435752322,0.534274952433181,0.527337203182385,0.511399095832269,0.519929481497633
-420,Cane,12m,0.511401694517455,0.545778161332501,0.562026536137212,0.540201271933451,0.542922969830491,0.517939476993897,0.563695720976559,0.538327146966119,0.53701473444376,0.533995067455903,0.553165415951951,0.512744775515326,0.529822456619233,0.509789707223298,0.531077187375941,0.532535693287849,0.530603934587834,0.511948170827361,0.517369114992178
-410,Cane,12m,0.511154448710553,0.545459035987715,0.559738865446782,0.541635705088358,0.543371912933359,0.515978517105404,0.563680515341743,0.539715948639295,0.536645306893154,0.533639118888771,0.550230719690539,0.510291456103304,0.529785827442651,0.50811077719641,0.530405131485082,0.532388240331381,0.531899307263002,0.514183925728735,0.518231774460646
-400,Cane,12m,0.512320196848384,0.542462531085601,0.554699209542325,0.541045230640011,0.541229769290997,0.515265831438492,0.563115876858476,0.542534303563341,0.535876855651215,0.532074748987288,0.552147735882868,0.509943508514498,0.529703213341155,0.506862188536819,0.529515656225506,0.52975676263067,0.533330491677853,0.51634646268995,0.518542392738975
-390,Cane,12m,0.512537949525318,0.543121287185953,0.551833783834415,0.540890679258489,0.540059006736991,0.517209912695242,0.557897688018028,0.543862482075824,0.536238761241874,0.532077924786315,0.552591405668029,0.508861740951385,0.52893214205681,0.506014020533598,0.530282402466697,0.5270044804205,0.532891178528993,0.516963332859915,0.52025134916848
-380,Cane,12m,0.514394295777366,0.542373046058859,0.547187981549645,0.539007248247763,0.539564414957246,0.516535610394755,0.557337594309361,0.544629135476575,0.536491319810988,0.531904225543269,0.550276972550339,0.507032970093097,0.528365565453593,0.506898935737927,0.529617160891926,0.524072934036079,0.533029124588944,0.518650216094131,0.521861988701161
-370,Cane,12m,0.515020774458172,0.540214369958777,0.546352497892629,0.536148115144355,0.53756465072672,0.518374427456729,0.555992079146931,0.544120901524549,0.535838422184655,0.532246504392682,0.552294656568623,0.506132350689415,0.52582391745517,0.508185538098341,0.52834345435122,0.522345072841901,0.528315267569376,0.519865637116304,0.523229635100115
-360,Cane,12m,0.514389156317529,0.541627121870983,0.541789397734207,0.533835786109873,0.534905977758401,0.518987441367164,0.558981208090196,0.544084105612357,0.5335639246912,0.533240578150469,0.551448043696051,0.506667133750403,0.524596209023033,0.509095803876296,0.5279318777375,0.522353618146921,0.526317378304467,0.519591258197908,0.522963263448876
-350,Cane,12m,0.516763059414666,0.537660691524174,0.543671716312283,0.531633409467532,0.53124586443736,0.520073776582175,0.558926569313029,0.540081530595978,0.534589889872998,0.534131851625728,0.552126932390708,0.505665021009145,0.521513798878564,0.510380350032607,0.529412088121751,0.523387641542798,0.527705591782822,0.517752433952282,0.523242049079355
-340,Cane,12m,0.516055112792477,0.536910583499804,0.543581572603362,0.530992450818036,0.530754901685218,0.520992793470986,0.560727324288051,0.541073307666218,0.534761784759627,0.533965579057186,0.553609043231624,0.506948631002609,0.520643878611134,0.510633400538159,0.530394349943823,0.522769977147853,0.526166609440503,0.517093645922745,0.525286083761054
-330,Cane,12m,0.517327063932205,0.534146797448654,0.542929215026286,0.532695291549643,0.529959968535197,0.521928558497449,0.562259539974498,0.539563512690862,0.537520807715398,0.53424483120931,0.554338970712624,0.506761878910776,0.518385561142883,0.513765463581857,0.531978287573004,0.5193593718986,0.526389951817847,0.515597213113439,0.527705429881063
-320,Cane,12m,0.516645744613967,0.533896326770888,0.546781956282401,0.533641652886254,0.530730278888243,0.52138841602037,0.561900365274398,0.538277672425811,0.537982030115613,0.532583157712093,0.554330660491649,0.505512400065965,0.517585413264778,0.515565665768836,0.534285906819206,0.51752441187361,0.526391709562125,0.51439833403537,0.530950809952328
-310,Cane,12m,0.514381497979472,0.532030162118191,0.547326592682357,0.534895950012092,0.530223995601654,0.521050739288217,0.561909689858935,0.537606507723609,0.537928602700411,0.530941769160902,0.556846887239316,0.506953525504992,0.518524401973469,0.517642500246083,0.536431865358664,0.5124367323072,0.526167346634313,0.512369857664964,0.531963557863629
-300,Cane,12m,0.513385074096384,0.531887149331997,0.550830907443349,0.536863184449008,0.528394540131103,0.521698509067508,0.557293419874196,0.536266943265738,0.536879199467149,0.531890333908855,0.555240496584919,0.508343863308348,0.519304175018894,0.518873513786926,0.537705400183613,0.510541716041575,0.526494605137284,0.512250336267439,0.533204640417317
-290,Cane,12m,0.512469916544272,0.529765255513046,0.551698524625949,0.537890640845434,0.52757468157435,0.520737430788454,0.553357686780513,0.535981518872774,0.536802565329803,0.531818717892376,0.550607171062367,0.507623369880195,0.518867905981137,0.520523635843908,0.538303990494104,0.510618754423103,0.526338997441476,0.511889815356851,0.534187358259478
-280,Cane,12m,0.511631728702585,0.530801795677887,0.552756107185126,0.537632832552959,0.527135492886226,0.52093722995626,0.54761945373429,0.533494906526297,0.535290505751995,0.529501294051262,0.548659967228701,0.507553004689244,0.518820683515221,0.520859301627402,0.539787433275349,0.508341846126325,0.525386684533124,0.509689411582971,0.537358007318768
-270,Cane,12m,0.510547825731913,0.528591405996929,0.557022472947933,0.538518698802087,0.526746458406618,0.519963409549423,0.542982698599299,0.53256368282226,0.534362471032966,0.526713936934034,0.549011663830047,0.509423248808593,0.519739593383617,0.522059602565168,0.54278014987436,0.507428379488532,0.524406391987373,0.508898015730387,0.540488859636271
-260,Cane,12m,0.51154448576351,0.527704924046987,0.561224646109009,0.538282081809467,0.527591693072449,0.519274592457815,0.538694422871815,0.531405437975732,0.532028988475873,0.529587583704929,0.54637623535761,0.508491717451398,0.521363203669269,0.523872199495282,0.545752893647936,0.510171226214879,0.524964881564409,0.508086710985448,0.542662053760184
-250,Cane,12m,0.511788618011662,0.528886283565208,0.564995958262038,0.538999357296482,0.529383578817173,0.516674053057075,0.533629093912242,0.530576605768378,0.530947644671827,0.52973366916854,0.54348919104415,0.508332503447437,0.521003490194142,0.524275175372061,0.547670640066666,0.507881244267168,0.526009539259339,0.50748086194022,0.54053741050389
-240,Cane,12m,0.512738778097461,0.530767817645079,0.562942721881639,0.541265066624172,0.530479350445875,0.517870172166201,0.528119055025667,0.528666846611186,0.532435016268159,0.527557884116045,0.542805480625389,0.508033012007917,0.52281627141166,0.526412710537009,0.547081337663847,0.506861450832968,0.527137592686859,0.508110605146184,0.543519573880664
-230,Cane,12m,0.514515784308344,0.531625992327349,0.562483787146456,0.545053887976795,0.532487418726347,0.516998482883188,0.524291171850682,0.529084985299562,0.534537235673946,0.525947825358921,0.541085719199938,0.508605902885332,0.524115741709068,0.524465540815182,0.54411837721299,0.506927920571718,0.52759763693171,0.508457997984022,0.540247163398837
-220,Cane,12m,0.515630485102878,0.534123565385705,0.559544855551419,0.545863336240545,0.533551181401342,0.516411484054474,0.52137250545802,0.528708140080556,0.534603252259173,0.524638726280315,0.540594762771758,0.510510616230129,0.523667681142354,0.525117008064522,0.543932215968702,0.501528496608244,0.528752006569492,0.507459244275893,0.537533687190054
-210,Cane,12m,0.516521959381459,0.533700754832606,0.556260664913204,0.549073689115034,0.532727750676086,0.515351499865419,0.523906977978663,0.527089263835009,0.536057500667822,0.524136619300393,0.541183285595512,0.510495294038215,0.520837379538311,0.523087021738478,0.540660361084455,0.501384237062482,0.527856430602328,0.506733553436429,0.538042042658776
-200,Cane,12m,0.516827794838405,0.532483357400263,0.554208414067553,0.551496168571419,0.533883375150325,0.51453022057015,0.52275415510381,0.528146008423512,0.538889859513641,0.525548986622456,0.540271232787032,0.511535140180765,0.521521308279456,0.522033441906016,0.536301180911351,0.5014957756796,0.527905500258614,0.506150002578808,0.535159136008174
-190,Cane,12m,0.516138232579134,0.5346761322843,0.552207042981201,0.555474355979411,0.532739282445447,0.511511751748546,0.523993289951462,0.525749533362681,0.538154376832504,0.527798828811892,0.539200969610946,0.513120396339825,0.519177312597724,0.523128631088193,0.531667992509296,0.497843809698446,0.528540359961297,0.505339293133837,0.531488137558651
-180,Cane,12m,0.515143173453114,0.534885739611956,0.543605049158312,0.557084271347388,0.529836818552438,0.510430393987602,0.524574458055608,0.525635775696716,0.536489405637631,0.527677813918336,0.540694421634583,0.513286634960982,0.518934162498326,0.521560853645347,0.528936863410754,0.501401535950028,0.527832798561679,0.50454875825421,0.531526292064155
-170,Cane,12m,0.515473828223359,0.53519612564369,0.541021527098161,0.556945225484489,0.53008053046505,0.511939419492432,0.532188639672774,0.524803565892299,0.536193152452417,0.528468030082389,0.5408941140028,0.514627281338302,0.515950291829777,0.522258176819701,0.526700592925163,0.501608061535872,0.527419408512312,0.50426545147015,0.531642764814132
-160,Cane,12m,0.514767079581453,0.534574096334181,0.538108682605467,0.554392151236243,0.53035808521906,0.512964142407216,0.536597071276956,0.523791835927263,0.538981942447608,0.528779937017974,0.539565577359394,0.515457681380647,0.514504522370085,0.524103248210872,0.524431986887938,0.501349375590008,0.527591463307435,0.504477272566235,0.529469665504824
-150,Cane,12m,0.514951941129837,0.536720094191791,0.53713620845484,0.552828034318533,0.529977589110314,0.512524771645968,0.542924266609156,0.523988822195852,0.539660045391077,0.530192763587135,0.536541587190857,0.514992138618146,0.513508401503849,0.522666225688676,0.524616695462746,0.503298032534047,0.526688440490577,0.505574871218079,0.528204883694653
-140,Cane,12m,0.513507511159892,0.536629418037065,0.53643239677279,0.548857408581293,0.529515124655699,0.51064248667331,0.54969487408849,0.523254664081398,0.540188566805117,0.530263472828924,0.536084062736647,0.514640707640746,0.51068904244939,0.522732596661069,0.523605838236155,0.503129017829575,0.523964705914791,0.507969102992888,0.526534260063025
-130,Cane,12m,0.512046249404084,0.53836673403034,0.534064395400183,0.547318516165585,0.526990227691415,0.511443046764839,0.552076003003096,0.52313862287494,0.540989378777376,0.528870285168734,0.536001814077289,0.513135860995754,0.50943893760269,0.522253845569574,0.523290807865214,0.501259063521389,0.522975073881729,0.508086862210723,0.525415671783111
-120,Cane,12m,0.512857829307216,0.538883956920156,0.532768114555641,0.546155750892255,0.526480732028194,0.511365744999436,0.553134363254224,0.51993656746669,0.541392209696714,0.529557759691115,0.534692300645597,0.513065817047945,0.50925714053509,0.520982959456991,0.522411788674302,0.500684135816839,0.520898006318117,0.5092591175728,0.525595638113286
-110,Cane,12m,0.513963194390319,0.538258005932979,0.534706062711057,0.544233232969253,0.524671713841417,0.512801849379615,0.549755466263641,0.51929494382649,0.540884905928946,0.533653499208253,0.536354315618504,0.513745486752014,0.510498031133072,0.520166262548167,0.522031746735842,0.501045586619299,0.520098533214061,0.510224134581453,0.528354800415811
-100,Cane,12m,0.513214357849473,0.536067561914487,0.533046452142902,0.545075523388523,0.522431148996104,0.515197792709113,0.548928020905572,0.518614299636028,0.540898368672567,0.532231784142232,0.533350348207165,0.513197670945296,0.509589799263706,0.51981638091973,0.521767482330863,0.501905388640835,0.518797721706655,0.510805037841869,0.528154842532961
-90,Cane,12m,0.514458191097904,0.536617626667313,0.528855044395127,0.542121610822305,0.520739866630294,0.513276847623663,0.549018744875098,0.518064865141117,0.539557110699213,0.530504832839636,0.533618628980377,0.514360096630182,0.511887571447101,0.520719577634979,0.523348028863598,0.505074418201935,0.521367890337775,0.510509697346251,0.532425012438031
-80,Cane,12m,0.516036939165963,0.537107029952804,0.526336483696034,0.542029797671399,0.520023221636957,0.515974958602485,0.547576174941478,0.518649906711458,0.539444090208707,0.529646313729895,0.532797425179001,0.515893232024135,0.512393825018496,0.517939622034411,0.525640080834115,0.506032834561674,0.521345950415318,0.51193317781296,0.532286473392062
-70,Cane,12m,0.51811430471698,0.537519710554727,0.525025656537185,0.543099383726622,0.521712887744323,0.518295699840422,0.548124239438615,0.519294503946566,0.540004762778001,0.531254319127443,0.535315622566234,0.516842435144067,0.512162712289854,0.516787115422598,0.526839191596776,0.506516561984422,0.523016974674804,0.512190419876544,0.529707999689016
-60,Cane,12m,0.520675640039305,0.539053494690085,0.523193824856965,0.543769991130701,0.518170810673576,0.517550211643529,0.549032893038805,0.519964341908539,0.538936379725221,0.531354760677728,0.532849225149394,0.517697350966511,0.510725562594095,0.514031823794586,0.526616140597746,0.507383334248291,0.524390582065129,0.513164743926313,0.527977578522354
-50,Cane,12m,0.5209779005739,0.53634473548763,0.523037189914954,0.545784341440603,0.51725308494745,0.517993468720975,0.549107122589396,0.519449345196082,0.538149220731311,0.533371931510924,0.528594508035563,0.517579961726319,0.512678390235789,0.514177984826442,0.526198498855529,0.508850458681037,0.52493331211771,0.512052310599892,0.529646486215436
-40,Cane,12m,0.520975373269674,0.53453739711639,0.524787522148137,0.548507881655292,0.518331285238188,0.518963760162601,0.548253463682991,0.51901170790763,0.537919461798852,0.535748734470391,0.528841947241377,0.51683692605323,0.515223089902378,0.51548731767947,0.524873410711987,0.509155253320259,0.525390018519955,0.512698187786015,0.528298616230393
-30,Cane,12m,0.520186503671207,0.536708806266635,0.528310973658788,0.551530526860484,0.519739518099185,0.518758682408282,0.54742557569344,0.519502724481769,0.535820173732066,0.534317416087428,0.531060559273679,0.516555589855264,0.518094584193007,0.516477158658035,0.52346713743131,0.50812286196117,0.525140701286429,0.513322382283939,0.529177264923426
-20,Cane,12m,0.520901633664813,0.537220542205411,0.531369215443151,0.5545327572019,0.51980884982827,0.520349878070328,0.544456858069381,0.520253165598489,0.532130746195915,0.536174314952819,0.530028044004537,0.514482809997073,0.520572637883328,0.516989198980978,0.522692373206036,0.507285942965284,0.526544730706499,0.512811389942422,0.529760245489994
-10,Cane,12m,0.520885214979607,0.537462311361475,0.535776872919803,0.557188654462172,0.519969580046966,0.521148216434446,0.546239604763352,0.520559146110667,0.528539058731728,0.541190662247419,0.530207282102716,0.514563285182079,0.521870317543868,0.517672970448825,0.52260550255042,0.508399314997558,0.525605612513487,0.514016519048116,0.529220616502596
0,Cane,12m,0.519997300854869,0.536317116402599,0.539035849689346,0.557712282887377,0.521911147962709,0.522317587778244,0.547696984743464,0.521244505981163,0.527008828717742,0.54098496870041,0.531718004978992,0.514784185392162,0.523153505970214,0.517989752148923,0.523253078515241,0.508660942815949,0.527328080683255,0.512783479768495,0.530288897275193
10,Cane,12m,0.520832354263875,0.535677345827225,0.539260649626867,0.556365046995656,0.523986080226745,0.519873481111925,0.548290256491799,0.521560903791579,0.526210049522807,0.54461854266179,0.530832926199994,0.512999984020218,0.523803577377486,0.517952903305321,0.525264940590499,0.510058123864527,0.526470908524633,0.511852668708026,0.531071875074034
20,Cane,12m,0.519943806915806,0.537519588218261,0.541092528702865,0.55676490232206,0.525589337317457,0.518580138114595,0.550517607127119,0.523690864857212,0.525350525856616,0.549568000649233,0.531186878455799,0.512800281669045,0.523771312576731,0.520427227188545,0.527813496012182,0.512460639511144,0.52673047897162,0.510471327032703,0.530528405231242
30,Cane,12m,0.520108044368317,0.536542926464809,0.542458882310743,0.556682167321875,0.526095983154449,0.520887096480875,0.548064120508833,0.525163555998521,0.524523101855273,0.547925239326376,0.529524667842707,0.513075536466538,0.522188660181481,0.521972823577525,0.531280591483296,0.5145079379764,0.52546825557185,0.510263313789384,0.532072864999532
40,Cane,12m,0.520998795892595,0.535029596206864,0.542815337917455,0.554774044733981,0.525863880005182,0.518840736922609,0.547642673232348,0.525736542923184,0.524196894600561,0.552369513914622,0.528047891042201,0.511766039069864,0.522371181690116,0.522153954355029,0.532941492677648,0.513780421973749,0.525042582420594,0.51166247841753,0.532896933377144
50,Cane,12m,0.521540457724193,0.533048735201484,0.544036573475532,0.555221604454936,0.524510419753032,0.519487701479206,0.545034362950329,0.525247287309318,0.522233898633912,0.551010350585231,0.529558059575885,0.511116417571633,0.523980365701799,0.52170444432478,0.534320900780664,0.514411478349369,0.525607788221898,0.510417755224886,0.533587209528015
60,Cane,12m,0.520847382768951,0.53244342584163,0.541124960991785,0.553218598016825,0.526857499932183,0.518983195426714,0.545903999497849,0.525341140806001,0.524326328683457,0.549858105751396,0.532984112806131,0.511349928014368,0.524170635731147,0.520680755512476,0.535740023679241,0.512862751374584,0.527403310828801,0.510311684163691,0.533969491420937
70,Cane,12m,0.521357224376049,0.534304055240397,0.544085577723698,0.549697502938918,0.527257886468919,0.518200829309792,0.546451910431765,0.524340070808127,0.524142058760892,0.549536253061152,0.531153029951885,0.511082662162471,0.525458754132629,0.519218348473267,0.536399308230383,0.511342184068739,0.528793428228546,0.510870302051863,0.535508053162307
80,Cane,12m,0.521216710944975,0.536821129313655,0.546557207692819,0.550282614645345,0.527970218249759,0.518042039589313,0.545859006844861,0.522655232534064,0.527124628403651,0.549792214989701,0.536763656624097,0.511033722551681,0.526721387910091,0.518815375779355,0.536672125251374,0.511835827952478,0.53031772129972,0.511200016471505,0.536226705762645
90,Cane,12m,0.520612162274251,0.540942399863038,0.550504560518857,0.550076255081638,0.526689158950012,0.518066801269303,0.546632751197476,0.524128884758392,0.528932919923643,0.548016336250882,0.536137095889557,0.509053452338643,0.526034040966611,0.52040887836095,0.536715578058882,0.512442256474841,0.535062465613705,0.511734808573537,0.538842604098852
100,Cane,12m,0.519616667631325,0.541862009602183,0.556405412533202,0.54631231035075,0.52703461266985,0.518203395181906,0.552484717682587,0.525727232238848,0.533031041106338,0.544326661161131,0.536256098473534,0.508314401459434,0.5291793575942,0.520452625397092,0.537349257676255,0.51264509743182,0.539019433360402,0.511315083063884,0.539610059526303
110,Cane,12m,0.520222839240719,0.541530766649936,0.562038813501503,0.540982948812818,0.526402060603998,0.518499666270016,0.559317139229769,0.526041827923317,0.534523772816199,0.544758535120896,0.53698149310423,0.507316665093499,0.528552368435346,0.51868758668574,0.538274315060263,0.513388823018439,0.542587662500864,0.511384347622193,0.538798507995877
120,Cane,12m,0.518957575458349,0.542521420557666,0.562805468889326,0.542592879913057,0.524267785866891,0.517957547852246,0.561510323324687,0.526872672102216,0.539086019559548,0.544086123104977,0.538359986566599,0.505921577615308,0.528595419524486,0.517298125954367,0.538563373572774,0.512819206992107,0.545053061633782,0.510046233067475,0.539793179815528
130,Cane,12m,0.518622059459582,0.544314818901477,0.563276660370242,0.538558251306767,0.526187943009277,0.51768250828334,0.565178346700218,0.527258292119835,0.542973346980223,0.544543777135414,0.536796368132312,0.505357231364914,0.528759217598837,0.515918255020538,0.538703525226061,0.51323067362234,0.549038993663886,0.511086615445084,0.539225534954826
140,Cane,12m,0.516582531301127,0.546063383047136,0.565082854643289,0.535744095003506,0.525625075613482,0.518416231607005,0.567288456479806,0.525477491043572,0.543298583158401,0.543356806245134,0.53567022369006,0.504920141923058,0.528298854862398,0.515927050023241,0.539624576467965,0.511264797731586,0.548592349248698,0.511923402625259,0.539007905465715
150,Cane,12m,0.517115673352456,0.546549516823575,0.561805839884995,0.533517210300325,0.52569241688788,0.519320133045228,0.564387925252258,0.525829574487672,0.543073081155823,0.542221157382013,0.532219031731922,0.505213332135862,0.528928098553207,0.51507543267751,0.539254657075685,0.512448467201371,0.548482250251463,0.510452444306379,0.536032196853615
160,Cane,12m,0.516897524175572,0.54956379257439,0.558578823918678,0.530202740733403,0.524771554233843,0.520044515414819,0.563768573736045,0.524641090205572,0.544971646244199,0.537831454441196,0.530122796001935,0.505546606206446,0.528998816688839,0.514083092241046,0.538376437861376,0.513537161504248,0.551019385263644,0.511735639778821,0.53452820566139
170,Cane,12m,0.51510056923385,0.550258291362311,0.552889855882956,0.527876851053217,0.523034649293815,0.521792629171381,0.565554738445464,0.524814312676826,0.550398352318225,0.533680341060518,0.527832840626596,0.504691451470564,0.528263625329477,0.515494701469056,0.537095374563877,0.515800220022899,0.551971539644115,0.512704963424836,0.536273809223342
180,Cane,12m,0.514069962585334,0.549411511702454,0.551342952571271,0.528605643511342,0.524456436566762,0.523512157359996,0.56485054480234,0.52356546611414,0.554198087937534,0.531616451628909,0.525982274843745,0.505405754882742,0.527598495472906,0.515832077784867,0.539122671268323,0.514719897128352,0.552675014449086,0.51372269830115,0.535688256489558
190,Cane,12m,0.514354233004605,0.547424065852411,0.548358927772633,0.526078083402834,0.524983845142175,0.52392018686769,0.56554747295926,0.523389748625334,0.554413967245293,0.529856042153009,0.522015476993571,0.505808834050788,0.525303694798207,0.514863942911169,0.541285308353247,0.514714807017945,0.55111248016123,0.514551553928,0.531387783094092
200,Cane,12m,0.514910794324327,0.544011869833864,0.546116217071335,0.526359900159712,0.527232305177151,0.525519873576749,0.567856763167804,0.524120123810242,0.555027506970984,0.52719601925726,0.518362576198817,0.506131015820772,0.524815218068661,0.5130127249457,0.54454774660227,0.512164949742746,0.55099522154709,0.516253604035264,0.532203201246547
210,Cane,12m,0.51469541292337,0.542242147619195,0.541772396016913,0.527868409055136,0.525406283311869,0.527298764856365,0.567761584315343,0.525849709726698,0.5537666365307,0.525088906383316,0.515860148670314,0.507989884558593,0.523809590383703,0.512394751048328,0.54663487592924,0.508088005368854,0.547575441593611,0.517380242425133,0.531929269518414
220,Cane,12m,0.513694857838721,0.54116142654599,0.537051380104946,0.527773261270322,0.526804720496456,0.525977213179031,0.5722972044158,0.527951170278714,0.553396561526905,0.52213687010948,0.516323224372516,0.508731231388659,0.523689776969797,0.511179083122722,0.548893431385654,0.508980763089568,0.545042454837129,0.519062618477208,0.532171100145522
230,Cane,12m,0.513997255378508,0.537911513696062,0.532677601830354,0.52843258340806,0.52713463284454,0.525678473146072,0.578889432928604,0.530085110582612,0.550808831621147,0.520755134493346,0.516102893553172,0.508610091055253,0.524779279227838,0.511242469192673,0.550991551729279,0.508278585933676,0.544615851585383,0.519524530119597,0.533455612381099
240,Cane,12m,0.515028120581976,0.535308921808624,0.52751144484682,0.528260783671642,0.529713273042853,0.521995060115544,0.584126511804288,0.530411440458463,0.549755517448164,0.518418259978661,0.518040000955435,0.508355227121249,0.524502556455334,0.512122517887703,0.551761099849158,0.507421735113808,0.544103356517596,0.519310684854772,0.53182665801107
250,Cane,12m,0.515619067638557,0.531979549864713,0.526089718878217,0.528839773065188,0.5301947964864,0.520852327465438,0.588693876640356,0.536070607663051,0.548007596514235,0.520822910716439,0.516578942468076,0.50675965329665,0.522112019688419,0.513970531163873,0.549941574008146,0.507749983268432,0.544998478225486,0.520488775748297,0.532252146959736
260,Cane,12m,0.51737748949776,0.530719708309423,0.524936939040982,0.528319544053393,0.530971374826519,0.518277853729806,0.591752334581387,0.539453333967888,0.547404701178524,0.521324806075203,0.51668547539123,0.507832098651439,0.518225022110333,0.515505354356531,0.549875428116466,0.507703758100657,0.544618103853567,0.520748296641007,0.530615440039923
270,Cane,12m,0.518070484427513,0.531011545920475,0.523856011611163,0.5287395864737,0.531198029615128,0.519011345790054,0.593576039196172,0.54316293250801,0.543123878837633,0.523215939004809,0.520350882599151,0.508827478586998,0.519229105685212,0.51765843916626,0.548504628454751,0.507183712910567,0.542027922868689,0.521064141613736,0.531912045097598
280,Cane,12m,0.519111109672419,0.53036829361081,0.52435311323343,0.530137446579197,0.531621507344496,0.520344572588381,0.592498631553652,0.546468904768658,0.542281382184739,0.522917960731496,0.52605246815928,0.507517559353314,0.519750185196896,0.519155830010427,0.547941183388567,0.507115530740806,0.541097411747794,0.521150495429556,0.532901238603657
290,Cane,12m,0.521675108354927,0.530473362276835,0.523460912587862,0.528831804577407,0.53291478530197,0.521134549399589,0.587719723989678,0.547897677557988,0.541512544906119,0.52513770336882,0.52723321932421,0.507392142543825,0.519785158449728,0.520845402545095,0.546780439228545,0.511355074818622,0.539904674891775,0.519245199309022,0.532563310550244
300,Cane,12m,0.523359271731169,0.530707380669119,0.524991600074828,0.526944677110138,0.534443601393693,0.520142086340913,0.586808054320485,0.549177548791048,0.538369189370972,0.527844517749916,0.530563077928048,0.508546896311272,0.519899690942845,0.519123478448149,0.545625699253533,0.513790789899215,0.540627490195303,0.517182274648438,0.531546088508855
310,Cane,12m,0.524159657446176,0.531161206334686,0.524380436890307,0.523386673200796,0.53444056317281,0.520847230858012,0.58202793652589,0.549561317541787,0.535165349185522,0.526900077380862,0.529573022637491,0.510411671440343,0.520348853395324,0.51879722370208,0.547990264312887,0.513133739591992,0.538897345128776,0.51659291503929,0.529508279940122
320,Cane,12m,0.527220182546598,0.533130554957855,0.519505601685318,0.521285275503663,0.532767461903854,0.521056113865734,0.579574413136998,0.550855460097612,0.536703054719196,0.529277634103514,0.531385652810815,0.51141886734727,0.518682660322776,0.520296233341559,0.548002781865942,0.513673145095786,0.537426512207117,0.514025076629039,0.526988536734907
330,Cane,12m,0.529784014530289,0.536064804331394,0.516738364437171,0.519759870567618,0.532733010702774,0.520081737808897,0.581341807964583,0.552205274324562,0.534518296820305,0.531571646136327,0.531563289108174,0.513689303555103,0.515352700530316,0.519241538670757,0.54722197820073,0.514348106931196,0.534464567020462,0.514289759338978,0.527384553037776
340,Cane,12m,0.532636580011097,0.537303747128094,0.514082896075357,0.521743589406093,0.533222854073011,0.518139528819907,0.581110279566406,0.552336685308894,0.53294541863864,0.532261330021455,0.530568494701911,0.516955028684535,0.515219135841245,0.518980636048527,0.547614578293017,0.511726193451615,0.532018651254199,0.514057091097614,0.52618736399384
350,Cane,12m,0.533197456102789,0.536670320154788,0.515382475978814,0.523433992551796,0.532753085710108,0.518473875123755,0.582799700492447,0.55205235567693,0.533079149086648,0.532148870959411,0.532007915829089,0.518309738363839,0.514095726217937,0.519580036729834,0.545595992520129,0.512484698050919,0.529414566713906,0.512735705911404,0.526401931015351
360,Cane,12m,0.535867968502559,0.536988945456295,0.516020315503276,0.52045874502355,0.53004987855322,0.518963536015146,0.583387091402078,0.554077628621598,0.531522039233074,0.533117284555172,0.531964513154938,0.518992783215429,0.513058784613335,0.520305669963697,0.545836556328984,0.514117034956124,0.527446694808881,0.512964435344162,0.524311381960232
370,Cane,12m,0.534892741544214,0.536437717393612,0.517957856230862,0.522407555419196,0.529545835203819,0.518492666477031,0.582292381303126,0.552199840045237,0.53339032792379,0.532403485471486,0.532441499531415,0.517159744365155,0.512386932063981,0.521322869106546,0.5447382810427,0.517291554816839,0.528188918748608,0.512494144976957,0.526451178744092
380,Cane,12m,0.537278824941375,0.537179410388598,0.518668167823593,0.522141875637796,0.528474525731203,0.51818537842188,0.580494466174271,0.552197598964906,0.53384526027629,0.532541229520585,0.534987978765189,0.517920177403949,0.509059222798286,0.520745751028871,0.544818897633992,0.520428393124351,0.527434161538478,0.511246245620638,0.525730629862648
390,Cane,12m,0.537274081838296,0.536995991142636,0.522325034445327,0.520821791577466,0.53027936185076,0.519408050565833,0.576498855004161,0.551120051896764,0.53543916159413,0.531334426992521,0.539520569386926,0.516683288548987,0.507661490538087,0.52000787331092,0.543311827444722,0.521835232460048,0.528406972293689,0.511993599078834,0.527768585073751
400,Cane,12m,0.536819990250157,0.535272500105847,0.522637930912689,0.518979130405594,0.529652942234065,0.519433624792707,0.575188597607798,0.552474455953773,0.534205127531877,0.530610861208875,0.543415300400805,0.51599020630767,0.508582598503128,0.519194656356478,0.542499415335907,0.523319952948307,0.530183470118493,0.512191743429638,0.528566452022528
410,Cane,12m,0.537476639918762,0.53298938092086,0.52256603264235,0.516762747512002,0.530769789068078,0.521912717914833,0.571453913392156,0.551213930107306,0.536163549189329,0.530875386412794,0.546312910115537,0.516777602095378,0.508367221831166,0.519090323189224,0.540165045181771,0.529298968963155,0.529974380775812,0.513281288357535,0.530488308876752
420,Cane,12m,0.537196826046769,0.53047468737053,0.521034605984886,0.516439298710686,0.528906756530222,0.524093612495776,0.567828253222267,0.549363399790567,0.531453457651604,0.531693099596456,0.546594916977702,0.517254493381313,0.508770126156151,0.516691030451268,0.537733049151664,0.530638648521295,0.526145199387421,0.514504061681359,0.532342557189906
430,Cane,12m,0.538660555784572,0.527385725274751,0.523319012500596,0.515763290127323,0.526231786035237,0.526342256897953,0.567955371222315,0.546840655887676,0.530588849030944,0.531622384325867,0.545357730835397,0.516417402466171,0.510216558919475,0.516231937452323,0.53653330886516,0.534903615793394,0.522406217662722,0.515726458663629,0.53313656914455
440,Cane,12m,0.540235210363545,0.52554484465009,0.524044261009499,0.513807803065345,0.524604611796046,0.527540346748245,0.564061700171239,0.544479304648032,0.527836410094154,0.532083695780546,0.542755063218689,0.516600013423799,0.512432146747428,0.516111378106175,0.536143055958746,0.537648152444804,0.519648599346902,0.519531937453413,0.533952139877557
450,Cane,12m,0.540236635855817,0.526224881983739,0.521552904093627,0.514685980364824,0.522258925845821,0.52643247560838,0.556439434080493,0.540935965249554,0.525145943833728,0.531854128883348,0.545035086255203,0.516499028372176,0.513556379980922,0.517539204626949,0.534544220438858,0.541627774216709,0.517958333814727,0.518221691319111,0.537129987798552
460,Cane,12m,0.543602443078695,0.527496876148654,0.524277802999622,0.514994934742011,0.523681359698233,0.525704474029777,0.553029009181452,0.537880432764369,0.523265084587419,0.534441289537775,0.544496762633385,0.516336404596685,0.516473218740587,0.517840606008128,0.533014124633868,0.542803565466455,0.518437155860824,0.519077369953485,0.53867399111056
470,Cane,12m,0.544268358968913,0.52498764907964,0.522963589660915,0.515132634410939,0.524351987754749,0.526308384500844,0.551510384628395,0.533943357322633,0.524269764895479,0.537000491095017,0.544915028173776,0.515991183849913,0.518669475156295,0.517308996410464,0.53288249438458,0.54395973503076,0.516476252776805,0.518691711662755,0.538560868538321
480,Cane,12m,0.545442360396099,0.525265726408063,0.52367272781392,0.51468193461697,0.523204762840193,0.524363603798455,0.547946686786012,0.52923148522671,0.521673237372517,0.537122002829194,0.545473171446326,0.5172325582832,0.522102652011957,0.514553525773643,0.531701748895108,0.543340053302071,0.51659226827532,0.521581378145602,0.537164096012071
490,Cane,12m,0.546884791471639,0.527043467756897,0.525095746426127,0.515751508642411,0.525655614424778,0.524490371915611,0.548323339544875,0.525935347980261,0.52476908386675,0.538534660356912,0.546700440848895,0.518034551300026,0.522973642448843,0.51526047918379,0.530028112933949,0.540362311069162,0.515720325881988,0.52235240089796,0.535683418772292
500,Cane,12m,0.544641242465069,0.528929112033247,0.527104289653309,0.516268159967511,0.526414109410961,0.52428133363595,0.548052268547921,0.523421646090814,0.522779166209741,0.53812590333159,0.54314765360829,0.518965895353149,0.52526956368225,0.515263618186234,0.527261569990725,0.540141499839435,0.5122252897879,0.523266729006928,0.533880993752285
510,Cane,12m,0.540553141308955,0.53281807984356,0.524801315001257,0.519539788039987,0.527709950018744,0.525107612356598,0.548100893142097,0.522107968865248,0.525239739515681,0.536812952382041,0.544343999250879,0.519669166818848,0.527173935951828,0.514414930858942,0.52570303760101,0.541297758142316,0.510103681446301,0.525643593399845,0.535538533435585
520,Cane,12m,0.538072695158065,0.534951404249768,0.523436226125752,0.519757491849849,0.527917381420891,0.52714427388813,0.549129629173282,0.523427986849517,0.525115077239764,0.538169071074429,0.541266927541621,0.520385465186351,0.529206155324094,0.514652449885225,0.526047324018305,0.540358136088597,0.507976427234186,0.524521287424126,0.535319155083786
530,Cane,12m,0.536027776420758,0.535233014569253,0.520433590066351,0.51946293346636,0.528082579037625,0.526312864024963,0.550191322445961,0.521251271528789,0.526334331892404,0.539354535282556,0.537986130258573,0.521161222848629,0.530915370199823,0.515521869793376,0.525187615659384,0.544579113747759,0.508969108001209,0.524744173265437,0.535130008249581
540,Cane,12m,0.534719999645833,0.535739556337567,0.517858151662252,0.523663805742811,0.530775262627178,0.525671527337452,0.553374152527914,0.520418906650787,0.525933351176904,0.539030752601483,0.538580700505439,0.520992373982272,0.530669261031622,0.513255671937061,0.526268221219026,0.545453456101359,0.508347630024499,0.524114797604898,0.536541520993738
550,Cane,12m,0.533676367482116,0.535381137963598,0.515906545162503,0.528535954092201,0.533936431704657,0.526048663663554,0.553848814713894,0.51979387213088,0.527108864988527,0.541480217820103,0.53970920417201,0.520781378526734,0.532268818718853,0.513898488574658,0.525716272142329,0.546807675060672,0.508481263702982,0.525043076192682,0.535703481037477
560,Cane,12m,0.530265166649803,0.534229774906225,0.516837269575332,0.527310454830273,0.533988596547845,0.523044837554863,0.557984215743253,0.518340060545963,0.528934067127508,0.544134901491183,0.540102988689015,0.518398128854254,0.533302263709369,0.513846532048397,0.526608731979234,0.550787189169519,0.508203813889077,0.523029326539236,0.535835609463549
570,Cane,12m,0.526781796780331,0.532262830597109,0.522193055967704,0.532287496217776,0.53271728595047,0.522067653961695,0.557578706518346,0.517224660215468,0.528583285097273,0.547633312502225,0.541359492735531,0.517709122408707,0.534349539476899,0.514875331295008,0.527852160371195,0.554574689766415,0.507430806420674,0.522220722255695,0.535052493113614
580,Cane,12m,0.523979103109566,0.531712421117757,0.527213456177842,0.534620030714479,0.532175875021572,0.518519716885164,0.560959837095416,0.516456709910906,0.527560899181603,0.549364856887315,0.543169389164983,0.517512509422999,0.536069169274041,0.518720687309421,0.527957548353406,0.551498045543559,0.504888523208218,0.521450597861307,0.534954859276085
590,Cane,12m,0.520653431086782,0.529711297290206,0.528674844880234,0.537078992246212,0.532394748425507,0.517693187139762,0.559909118205308,0.514335021963831,0.526178753645122,0.549549028562579,0.545202918866474,0.517257626726961,0.53632220671487,0.51950909574481,0.526899280364171,0.54986737173804,0.504439708653015,0.519893233502857,0.532469590236596
600,Cane,12m,0.51869748807317,0.530788206882067,0.531214346716679,0.537273671197603,0.536778949715593,0.514266646403554,0.560626389705515,0.513481905650647,0.522499174271363,0.550441941222891,0.545675762566205,0.517752040448548,0.537885882647172,0.521460013097559,0.526069185684066,0.550347949449296,0.505625049938504,0.519481720108114,0.532434852359619
610,Cane,12m,0.515114584192635,0.532331141753966,0.531621939796179,0.541831329935074,0.536149641327336,0.516050476829192,0.559637568600523,0.512660764193877,0.521876219753699,0.548549596427677,0.545778394367149,0.519072771623604,0.538015449022375,0.523660972062031,0.524346566074065,0.548799619144735,0.507603419281322,0.518973425093426,0.532147276602431
620,Cane,12m,0.513669522327468,0.532265880144808,0.529595715600604,0.543665193596827,0.538753841424759,0.518143482354405,0.559954410330724,0.510000882645591,0.523221845695761,0.54814191071056,0.544761211886997,0.518915007122164,0.538689293518325,0.523742166457005,0.524363241282475,0.544655963684442,0.507896864452389,0.518112566920702,0.531701582878569
630,Cane,12m,0.511263143987353,0.53054511491649,0.530410227208925,0.544964530985848,0.542375893894592,0.518574951870336,0.562419627393105,0.508258204786397,0.519807539140804,0.549471740531511,0.542732721271526,0.519115790768545,0.539963735146936,0.524365520007126,0.523408867094222,0.540661237531483,0.508462396445392,0.518820815014761,0.530923232197279
640,Cane,12m,0.511722500429025,0.531746015959867,0.530487600779809,0.547101431080981,0.545116677704057,0.519959005824285,0.561741478695496,0.50862432483687,0.521225304029572,0.552399989692439,0.540662318731209,0.518789498770187,0.541679961670357,0.524567562220459,0.523727111071134,0.534287707079673,0.510538822270235,0.518351411259782,0.531274898604839
650,Cane,12m,0.510957260570138,0.530937254363724,0.528223739897975,0.549415345208933,0.547946987847783,0.518596541555166,0.562477006592799,0.512418120740464,0.524037400679879,0.550463464333902,0.54197124755585,0.519090436185019,0.542796552464958,0.526262430962405,0.525362956577572,0.534077215659985,0.511098833393571,0.518754857351539,0.531745577835301
660,Cane,12m,0.510559756803381,0.529180973104191,0.530445868633861,0.552289641677769,0.549352367503392,0.519936476243496,0.56415826856084,0.51270518015772,0.527634076610842,0.550021693427774,0.543394927904609,0.519757674849101,0.544791819567585,0.526596943372907,0.526410356285081,0.534747273587334,0.514100197925047,0.519489664574751,0.531634675476317
670,Cane,12m,0.509401120124069,0.527935478652825,0.530077014006292,0.55247638813984,0.548212533448971,0.520806330218383,0.566448651420215,0.513842003042884,0.526958307274975,0.549502442436186,0.544443278323073,0.519464999229142,0.54514639277455,0.526273562626324,0.529156322252613,0.530839628689862,0.516439190244458,0.518782805429462,0.531818431993706
680,Cane,12m,0.50833516440275,0.527017940526434,0.528257766250032,0.554764668339478,0.548513522619035,0.521017988770722,0.563794796611372,0.515595808884067,0.529364479499861,0.548467008333588,0.545242755485332,0.516954585365596,0.545087249938802,0.528394700308364,0.533354873255914,0.526868896213876,0.517782443475265,0.51927402660421,0.532237054368487
690,Cane,12m,0.507531743021038,0.526880748034877,0.528550265413949,0.557484493165612,0.548895182719286,0.520814131992024,0.561282740691087,0.516860725979851,0.531542702452405,0.544796675412751,0.548997075992512,0.51631091711166,0.544482007263668,0.527925826629875,0.536689017397914,0.526393016667979,0.519660360560796,0.519222843952027,0.531876495976962
700,Cane,12m,0.506837294756653,0.526829829644621,0.531071671839842,0.558493450232465,0.549453630834382,0.520449792169084,0.561537538745317,0.520846249309872,0.531025365177869,0.543548118641896,0.550566036651861,0.513900535824935,0.543209038499867,0.529267731923141,0.536412130673147,0.522489050608298,0.518755842494412,0.517027789949915,0.531450535875247
710,Cane,12m,0.506179774340503,0.527285607729111,0.532284748650634,0.559581988787113,0.548453915044606,0.521863877806519,0.561267803100029,0.525154498885258,0.533441420794621,0.544834989989933,0.552308882031833,0.511735522689638,0.542105326978581,0.528849408610588,0.539281776958681,0.523243730580636,0.521105778998111,0.517342286156657,0.533818640244883
720,Cane,12m,0.507148829213931,0.528155922192664,0.534223194441326,0.559264971967751,0.549205800109058,0.522168996142649,0.561505458536911,0.524050391103473,0.533398915431182,0.544980713752819,0.554979544499154,0.512385869861609,0.54131385154311,0.528762874932394,0.542446025930319,0.523092068885654,0.523501465558016,0.518103850411489,0.533190723704255
730,Cane,12m,0.508249630933703,0.528219228720168,0.537973102186777,0.560807809988439,0.548248600382288,0.523879382975151,0.562117846061874,0.52370764369315,0.530542652736828,0.543367647467782,0.553825046101165,0.513616667378141,0.540129647053893,0.530213715514576,0.546172046062477,0.522941763398423,0.522681958769361,0.516761210796855,0.536429075969735
740,Cane,12m,0.509377430820094,0.531659914833171,0.541985960968657,0.560093316560098,0.549579611252116,0.524058062710795,0.56394434707434,0.523130586285285,0.526748246001972,0.540893021025576,0.549410808979406,0.513618906422632,0.540359581578323,0.528326597809786,0.548326856522924,0.520703745096391,0.521150099752471,0.51726072561798,0.538868466124529
750,Cane,12m,0.510535827057519,0.52947901612924,0.546142713772518,0.559837330591883,0.54784202733318,0.524974466511725,0.564531720129047,0.524147889063651,0.524039227367494,0.539850225460792,0.547356449456394,0.514336102004858,0.541112178333409,0.526289885277281,0.549177545687132,0.520824100657737,0.520711288369759,0.517507828189947,0.539777920097264
760,Cane,12m,0.511828888404589,0.527596521230272,0.548201092519322,0.558935431156151,0.547190049414116,0.52508970116778,0.562435641929433,0.525734553002546,0.520857771255184,0.537183369805095,0.546217026576485,0.514910914224676,0.541624429806915,0.523282807440981,0.549397146347697,0.520924975219258,0.521377002772928,0.517635955604358,0.541336333672836
770,Cane,12m,0.511254336598524,0.527572267228325,0.552797152947887,0.556455800523078,0.544876390246613,0.524207109048132,0.563467199304933,0.524231870098507,0.515658087838556,0.537704932740002,0.546776925571757,0.512368706151595,0.539553203606068,0.522632737817973,0.549611732865504,0.521940922287972,0.520765550890682,0.518751952622368,0.540915067634857
780,Cane,12m,0.511635065247533,0.527476298517214,0.555057030693729,0.55628367024748,0.543525891200871,0.523809233736154,0.564270623517248,0.523318343882035,0.514659157497918,0.536749949730253,0.546218323612371,0.512242032824161,0.535790811297142,0.521915861964253,0.54888681829054,0.523014134563393,0.52015038816037,0.517838636873724,0.540469715000944
790,Cane,12m,0.513016168002783,0.527887710001967,0.556560003226661,0.55510941315419,0.543822452292666,0.524067984374924,0.566399622249868,0.525508056394181,0.514902394553883,0.536700494827613,0.551109215953157,0.511678412666651,0.536025519503743,0.521259834359875,0.546900530184702,0.523940564698225,0.521353488062456,0.517343845653689,0.538797019636611
800,Cane,12m,0.514126282933964,0.528999539325205,0.556968195005123,0.552696648241998,0.544873842980192,0.524117925323009,0.568577869703668,0.526720081288534,0.512701868891998,0.536021877583746,0.549564515793432,0.509129389904616,0.533781286843536,0.519631903361688,0.544937951918786,0.524999817202227,0.520645870262266,0.514888914943373,0.535479957427519
810,Cane,12m,0.516210565830859,0.527357761745248,0.557296098391615,0.549577603736307,0.542783222276317,0.52592941025235,0.574398996458718,0.52924873533682,0.512261938060948,0.536276700668642,0.551052477329375,0.507736234193923,0.53593338610663,0.51895055116867,0.544822828564864,0.529461633884077,0.520249357213068,0.512658184180171,0.534667801092291
820,Cane,12m,0.516378094205509,0.525376461051953,0.56078606677497,0.546580104420532,0.541046457189243,0.52584991206431,0.576720311391157,0.53276672339464,0.513569806344363,0.53578769815606,0.554586050042246,0.507825160809669,0.534372692678045,0.518430680514853,0.544574982130514,0.532814825649286,0.522358676503426,0.512303944492431,0.534359709164676
830,Cane,12m,0.518205333657443,0.524612650913599,0.559395280950512,0.544440451170028,0.540919936632928,0.526062846806377,0.579395206082341,0.535192166755263,0.514323374788457,0.532900260551709,0.557012210668525,0.506257857052311,0.533242997765172,0.514499744729632,0.545058761292799,0.534361912893454,0.525507597070952,0.510861667549959,0.535340667911737
840,Cane,12m,0.518771685483538,0.522715344805305,0.55703873762915,0.543601279634239,0.539540920877147,0.525492847998589,0.584834302615307,0.536485775639879,0.516705016012178,0.530722766315467,0.558021917487655,0.505578859702363,0.532564461004555,0.514137628872521,0.546621071429265,0.535868400771031,0.527830028483168,0.508849672560555,0.534286771028018
850,Cane,12m,0.520348984833003,0.523171885966895,0.557719980249063,0.538889295994233,0.537516449342238,0.524372700866097,0.587116493223335,0.536596879463863,0.518645794202432,0.527867599188807,0.558777826309254,0.506262976413174,0.531612434491918,0.512365346806663,0.548759601226569,0.535147299606386,0.530625610906991,0.510004776859038,0.534766367675637
860,Cane,12m,0.518622629513993,0.522618088313741,0.557810017687452,0.537748397957212,0.53558251643222,0.525252766519229,0.590649757968183,0.536333637919152,0.520299148511613,0.526654007341394,0.556025298008895,0.505612231708247,0.530035468716113,0.512878971762363,0.547262068819883,0.537337306353736,0.534889195496924,0.507543970382036,0.536620309101954
870,Cane,12m,0.519874581884791,0.521713350945532,0.558308755287636,0.537948289221894,0.536027520051731,0.524306365990397,0.588708290723062,0.53619301325248,0.520321344735313,0.525809895355525,0.556934920565882,0.505220703720563,0.530452037334662,0.511433893898373,0.551225624365159,0.539369779526367,0.535397905266917,0.506255782225979,0.536983007933722
880,Cane,12m,0.520784654800077,0.521978957112776,0.563474508559465,0.53803040176589,0.535994603637368,0.522689900227904,0.5873734125085,0.535239058426775,0.521526375078487,0.523951464619359,0.55563125510879,0.50363908084792,0.530020261035063,0.511509088700679,0.550592404289487,0.53968703902339,0.536147967432805,0.506452179132256,0.537641587136532
890,Cane,12m,0.520465641699584,0.518394672415528,0.565337043387764,0.539730759556793,0.534812018828475,0.521055702742874,0.588113912276341,0.53164201963276,0.525705256111319,0.523475259385096,0.555261956258961,0.50234628029531,0.531398411082819,0.51047263426498,0.549658805577,0.539131279705568,0.538457717262684,0.5083386424456,0.537264474660698
900,Cane,12m,0.519517447668621,0.52085549803594,0.565873524446314,0.54234808092682,0.534253286694518,0.519925976569431,0.585962876147864,0.529005377110291,0.529469922441434,0.523172289741527,0.554722244363141,0.503424476438019,0.532707565772349,0.509429027644235,0.550831773298679,0.540654699072048,0.539917305516636,0.509247798477582,0.536968087936164
910,Cane,12m,0.521443787129848,0.525193410882907,0.564208100472023,0.54361204938339,0.53423140416956,0.519100395149748,0.58566278518974,0.527482897129657,0.534288076843536,0.52297156551638,0.554598026288675,0.502804367580116,0.53329357527949,0.508971036336038,0.552133401420137,0.540750384564654,0.54101147869888,0.509460233434345,0.535462712591373
920,Cane,12m,0.517657359422447,0.527560004897651,0.563753424199049,0.541944456279515,0.535342221228611,0.519069077067765,0.586034276155317,0.525901231637414,0.53882783622486,0.524430495586159,0.55510527485261,0.502280894175768,0.534380286201863,0.50653627014738,0.551924278181669,0.542403822887306,0.54140440011577,0.511129649006171,0.535816057679553
930,Cane,12m,0.5181978681618,0.529567955014028,0.563230033555126,0.542654364430678,0.532455365984731,0.519670437030528,0.586553339215662,0.529817605147412,0.545652086096179,0.527350676328381,0.556239169011211,0.503087254473109,0.533553870823043,0.505675833488814,0.550809203935475,0.541599592799592,0.541255930768931,0.511835528102646,0.532704225162805
940,Cane,12m,0.517339301743814,0.532450804362642,0.56328590774846,0.544528993138308,0.531247875449902,0.521750631711043,0.586357401448544,0.531577182100734,0.550190201270967,0.529589092711215,0.555781231698704,0.502472405306777,0.533196486409223,0.504930297196199,0.550732612553298,0.539559360149924,0.540081359099566,0.512166479509521,0.5324134093372
950,Cane,12m,0.516319558723129,0.533892233381008,0.561868176089165,0.544400364783671,0.527583085073652,0.52246989592676,0.584122044939122,0.529995765787905,0.555110132585868,0.530892835548937,0.556158703368766,0.501167097035761,0.532346354887924,0.503964191691279,0.550735554823758,0.537945633168334,0.538521566300869,0.513152192501149,0.530088358094128
960,Cane,12m,0.515652812592844,0.535356631346766,0.558870059600767,0.541996515255708,0.525045831952713,0.522368529115616,0.581019200231282,0.529795746741686,0.556489096659236,0.536201000079576,0.557765888028198,0.501076024158955,0.533695598213076,0.504048919517441,0.54957354269024,0.535581301641032,0.534915815033087,0.513766969730083,0.528995952171317
970,Cane,12m,0.516522673997452,0.536962206934319,0.555118986246477,0.541343003033048,0.523387041695198,0.522840009035041,0.574987586148781,0.531592156832647,0.554912916574095,0.537061468507817,0.556986366778312,0.502806700103005,0.53316784041208,0.5041175358692,0.54895603014098,0.532442347735599,0.531703814878865,0.515646713311724,0.530046020233947
980,Cane,12m,0.516609186933443,0.536477679407012,0.553977767459552,0.542223222743217,0.521186762673431,0.522826823329465,0.572783767624499,0.531995033007444,0.555690235893458,0.539462447859617,0.557741300682092,0.504497537300828,0.531699272411337,0.504720791859786,0.549823193689274,0.531935189323086,0.531853486095188,0.516478967759244,0.53152974564434
990,Cane,12m,0.51544888052402,0.538218292541375,0.551605690179708,0.539817522784593,0.521424441555937,0.523391637248536,0.567520144544065,0.53004264976415,0.558359033517498,0.54023432544285,0.558215472186007,0.504322444263169,0.530805035022515,0.505031492977009,0.549892391175993,0.528876695313402,0.533723190044579,0.517888402795747,0.53438321239101
-1000,Grasp,12m,0.516075206414669,0.541374718932663,0.527014501991995,0.515503904823343,0.533076947056702,0.520221749727222,0.542916499762375,0.548187046259304,0.513892697010301,0.518330238554137,0.535128431343713,0.515162521070587,0.528384267785398,0.51054762262968,0.531471345460142,0.517436671309106,0.53308431910662,0.514709280734464,0.51412628534745
-990,Grasp,12m,0.517900566681951,0.541817290727851,0.528274585342123,0.515658719523967,0.53310516207186,0.519943061947565,0.541308995879537,0.551211215174025,0.510603631845964,0.517715480764383,0.536188405661488,0.514554450830889,0.524745310711978,0.511185988308748,0.532441320513231,0.517712254143947,0.530946047506242,0.515176908772004,0.510094839466949
-980,Grasp,12m,0.518336076992187,0.541363212090233,0.529851447891216,0.515062675860351,0.532288940513763,0.517937237009421,0.539556830537687,0.553840638458832,0.506765998282617,0.517283305288145,0.534537354489172,0.513466853572216,0.522708509320708,0.512571538788278,0.532090192592241,0.518445777628904,0.530635683890248,0.514390791008134,0.507646356179984
-970,Grasp,12m,0.518784066842628,0.540319074467869,0.532308564292865,0.514288818828861,0.534239540826211,0.518320820499586,0.537736581242401,0.554490498100813,0.504520623075329,0.517683875348479,0.536068940562523,0.511926075073791,0.521349078524935,0.512904470906699,0.532703290188681,0.518458893819829,0.528173924951506,0.514194934417313,0.50783843336308
-960,Grasp,12m,0.519751616387451,0.538761208653516,0.535758185007752,0.514198658803894,0.535953357959596,0.514853204766644,0.534904913720832,0.55442647342357,0.503072006405646,0.517812139235147,0.538008509904676,0.509521216373395,0.519295667879052,0.51469842618393,0.535442195699789,0.519955767604358,0.52676489511827,0.51516083448681,0.506956798985005
-950,Grasp,12m,0.521711769999458,0.539487821403848,0.538767394790162,0.514209623515724,0.536137557229205,0.511785859123248,0.531804926922736,0.553324539083878,0.503796002946354,0.518010282712412,0.537575440693648,0.508487713157913,0.516248118431799,0.513349533257264,0.536050964887674,0.522559947688395,0.527723985290354,0.514158606279747,0.508436194744626
-940,Grasp,12m,0.522795827823952,0.538110109681444,0.542395846570421,0.514433278957955,0.537257900927674,0.512562053595085,0.531133982115851,0.552326448796523,0.503181158376404,0.517535787178993,0.536289896631307,0.509852036150198,0.517180279787551,0.513663718122922,0.537998703013957,0.525331119888516,0.525566378601982,0.514582134512511,0.508991016946745
-930,Grasp,12m,0.52163318969073,0.536923881668572,0.545754943125276,0.516074329226919,0.539648425528168,0.509999742569418,0.530648979189461,0.551914709298276,0.502591487799084,0.516568937034923,0.534096349376109,0.511088814569897,0.516291211582506,0.51401528234554,0.54142107538841,0.528267767837933,0.524470562943239,0.513005275475947,0.50890101668116
-920,Grasp,12m,0.520556849217768,0.534502622213214,0.546896077889365,0.517068734070121,0.5406610913474,0.51177475742543,0.528961911879469,0.550783042196901,0.504591582132864,0.515905428839018,0.532251449982679,0.512489767154972,0.5153450296976,0.512137521365394,0.542936759723535,0.530025434683525,0.521624248234933,0.512369903409835,0.509005333351962
-910,Grasp,12m,0.519037568612631,0.534543210592394,0.54834831691085,0.517200917986761,0.539928376084211,0.514086068757149,0.530895142051165,0.547481654248266,0.504413650444753,0.517587493094375,0.529659652618422,0.512839291617238,0.515793810611199,0.509983839662345,0.544204828268263,0.531037286318897,0.521008232804111,0.512160901093329,0.510241836689299
-900,Grasp,12m,0.518169097015392,0.534573135625506,0.551579192012993,0.520237919424779,0.539706902256387,0.512323608321889,0.533815914103166,0.546377004719628,0.50730678817566,0.514945592918117,0.529132185694157,0.513780001804741,0.516999605077594,0.50991595854112,0.545863808041447,0.533030664229641,0.518037105320824,0.51115095339596,0.512047177855263
-890,Grasp,12m,0.516740527033093,0.535510881513138,0.553928906446461,0.518300638366374,0.538923546532747,0.514490627343094,0.537678460832775,0.546329850195127,0.508385397704842,0.515807615537579,0.527871987011797,0.51377072601804,0.516981046080356,0.509286355189037,0.547878436092777,0.535466801856974,0.519214933060876,0.510004259673433,0.51214155844939
-880,Grasp,12m,0.515097505400464,0.536319700686222,0.553475053803248,0.518194411100096,0.538719321316311,0.515204220167697,0.537779202772441,0.54479347953334,0.509258265746904,0.513083342657573,0.525999200945509,0.513365545920631,0.517350819414209,0.509606592590195,0.54847220139247,0.534956081137373,0.517149805378164,0.51198185232882,0.513497827276781
-870,Grasp,12m,0.513717822019321,0.533936747629008,0.551500164406857,0.517671527085833,0.538164911498573,0.516022009664732,0.537717950698557,0.542445796213152,0.511637552534922,0.509045424882071,0.525156042289998,0.513765471179824,0.519329623631265,0.510432639105953,0.550195750205508,0.535540505327847,0.516778972279984,0.511707458777912,0.515858974583303
-860,Grasp,12m,0.512449753614,0.532864147140142,0.549327410745095,0.516457667900272,0.537801977738828,0.516646722578853,0.539743637354693,0.541423709861849,0.513040550481837,0.508931450892804,0.525151862744932,0.514352011475932,0.521561491904164,0.509799178401145,0.551813219301589,0.534433673338598,0.51694118398456,0.511490763435233,0.517656325527752
-850,Grasp,12m,0.510679481064703,0.534196373517447,0.546951679818142,0.519555306329792,0.536471848098543,0.516127439068116,0.536579180145705,0.54075060084045,0.514275181674704,0.510835812674842,0.525491535259317,0.513725014758253,0.522239629693632,0.508796937616608,0.552339130810169,0.534743834119649,0.516866054778092,0.513250864346143,0.520985156594293
-840,Grasp,12m,0.509794511579732,0.535941251454337,0.543835413654868,0.520884783466463,0.535545681731272,0.515819529810652,0.533647738961143,0.539250110532706,0.516206129521378,0.515308017442581,0.525126550348339,0.513155108090651,0.520795559679476,0.50835622974128,0.550746505667898,0.533703459681518,0.517469288581792,0.514615660911435,0.522562874001433
-830,Grasp,12m,0.506825741201852,0.535968108776849,0.543671557554127,0.520727834660763,0.534907667546714,0.516558624203754,0.534022996178453,0.537936647243594,0.519079781646915,0.514166683698533,0.526713943278639,0.513445188942073,0.52082727161589,0.509301539825052,0.551912209955507,0.532366599412161,0.518678305191221,0.514151061412079,0.522367629459653
-820,Grasp,12m,0.504613316181698,0.538563655440678,0.542332993239169,0.521594416582246,0.533337181078725,0.516720795207637,0.532101834431181,0.534878759818015,0.523005271747885,0.515823646212246,0.529916020006812,0.512328896140715,0.518791718560285,0.511670234665794,0.549755743758053,0.533844086803121,0.518533778618714,0.51632561014876,0.524877630440246
-810,Grasp,12m,0.504984228851779,0.537132431376248,0.538452100207946,0.52330082880362,0.53046612360185,0.515666633067079,0.530951124638012,0.529040191650372,0.526655624966105,0.515846026790978,0.531421607901631,0.512417982362999,0.519439716652505,0.510750785529297,0.546366368006065,0.53166675581046,0.517740492818789,0.515607947364243,0.52416181984805
-800,Grasp,12m,0.502485107849331,0.53541865759179,0.536656632468744,0.522815962364975,0.52890930535409,0.514144124433399,0.531962497416621,0.52956225059719,0.528526135554178,0.519356765352611,0.52655611824794,0.510862383189761,0.521471717342264,0.510218513196371,0.543740818415592,0.530730406504091,0.517515331767591,0.515616105294641,0.52297918247732
-790,Grasp,12m,0.501490639742366,0.534354562613412,0.537952320745877,0.521087435041931,0.527428736512083,0.516783558281798,0.53146803711711,0.529151589892081,0.529809688773482,0.519586299236375,0.525843862767052,0.511744211005214,0.521941462737384,0.509692617771516,0.542900495194535,0.527329046685712,0.518250849428021,0.51570102206785,0.522512080596726
-780,Grasp,12m,0.501911522165292,0.534531648873472,0.538086487472062,0.520718641466632,0.525863592778992,0.515937688756042,0.530783520936164,0.526400780996443,0.530545006725052,0.521676449722653,0.528175077770961,0.512781941037948,0.520982914611649,0.508928926763721,0.540158365990903,0.526625332521572,0.514784324966827,0.51533025543006,0.519389397943371
-770,Grasp,12m,0.500779864683795,0.532796428514008,0.536137030583394,0.520718107499847,0.524079761461032,0.515534045849581,0.529948877479255,0.524600873957754,0.532753545378865,0.52565520401639,0.531204232752597,0.512782304223732,0.521150327318861,0.507906293185153,0.537647376447403,0.526452904174707,0.514416633180556,0.514899696759225,0.519851581968308
-760,Grasp,12m,0.499001583689574,0.533388451635238,0.535029497123105,0.523336404691483,0.52353129318014,0.516350764824998,0.527402238202124,0.523711147592091,0.53198010089039,0.527894504068695,0.532044829379538,0.512466073701201,0.522287606702706,0.506937001144371,0.535668931941475,0.523115021520572,0.516523727414677,0.514130272287114,0.52262131582017
-750,Grasp,12m,0.500161212707249,0.53283112310511,0.532146001464135,0.522903606115718,0.522202496776087,0.517813783759262,0.528165403583026,0.523313786545009,0.531682243166554,0.529512841398562,0.533035725189971,0.512815408786905,0.521639094145546,0.506748121584743,0.534248322356643,0.518425173055079,0.51903677884751,0.515314467431324,0.523685639208292
-740,Grasp,12m,0.500974405176341,0.533816506532155,0.529116418473083,0.525714173366771,0.521446649607964,0.515805924758165,0.529877038463089,0.52110132104961,0.530591254142356,0.531114439291924,0.536077284234734,0.512194501895673,0.520595925154128,0.507080629134695,0.534056410941121,0.514563716375462,0.51856933399458,0.517112238693729,0.523544488747311
-730,Grasp,12m,0.502118013954238,0.534944833758506,0.527354980546776,0.526354529127168,0.520003644819491,0.512293785130681,0.531054370902484,0.521811756673953,0.529414751193359,0.532265491059339,0.539280412436453,0.512721240138649,0.51944997285106,0.50642936833539,0.53522610476944,0.512079692315756,0.516740265012552,0.517438433178212,0.522930327742655
-720,Grasp,12m,0.502090966927439,0.535177444591173,0.527288044062817,0.52775191755722,0.519509553043558,0.510678661783615,0.531378424166855,0.520078270910154,0.530027117267549,0.533085309696373,0.541879028944791,0.51261425212962,0.518667080677599,0.506927355672638,0.533875318865246,0.513559289839843,0.519292725756382,0.518820483846308,0.522554774311129
-710,Grasp,12m,0.504269915124602,0.538542200426683,0.525893239038337,0.527908636813759,0.518703338720747,0.510128612889761,0.530731788863008,0.520240079538988,0.530341655581399,0.532107279498248,0.542240241320989,0.513346457622354,0.516837246444452,0.50721485842568,0.535138436428511,0.516338030435308,0.521850315678562,0.520461574357593,0.523107647835368
-700,Grasp,12m,0.506244108315975,0.539152280236761,0.524380950991015,0.52697645416925,0.520067628707464,0.508639607180243,0.531743784306026,0.522864325678837,0.530348355519753,0.532859315757118,0.544163393289388,0.514713727902661,0.514685084423526,0.5089944445648,0.536053293626715,0.516735931602238,0.52256402483225,0.522147319163359,0.52638180835638
-690,Grasp,12m,0.507465525444462,0.538786805852204,0.521557433540897,0.524350677912365,0.520715252410847,0.505107478105521,0.531388423485685,0.522593090362578,0.530829184519553,0.533391668260172,0.543888861164196,0.51632082883965,0.512652533185502,0.511016905040168,0.535932551341829,0.516794387540684,0.52204250495439,0.52416419075507,0.523835768561837
-680,Grasp,12m,0.508224059929454,0.539840030137156,0.522513647550004,0.524623946180269,0.521200410747261,0.504945876621833,0.529385012159511,0.523856133827206,0.530280870166016,0.534014803670237,0.53978475570341,0.517383464004765,0.512967818806936,0.511616109636102,0.536314935856197,0.522097652670445,0.522850845143267,0.525250711391349,0.524666825398538
-670,Grasp,12m,0.509105594875052,0.5392273370903,0.524490553412345,0.525429683809965,0.521413068316953,0.503481390686547,0.525738745638353,0.52536726741853,0.529794001185503,0.531815353864811,0.537260409209679,0.518242385898254,0.512551666242733,0.512186943125604,0.53826426242219,0.525295304893108,0.524527790601121,0.524227085671543,0.527768432696879
-660,Grasp,12m,0.509473891392195,0.539855100825094,0.525887815332142,0.526449276073463,0.520299183677086,0.504309613300253,0.526622119667296,0.52665514686187,0.5296044556883,0.532494685693466,0.534398753251744,0.518025815972652,0.511753837480221,0.515000154838293,0.539757567986835,0.526467042066329,0.52572360664705,0.523029489906648,0.530797717496283
-650,Grasp,12m,0.510622441465867,0.54068669979489,0.528108530766496,0.52717838648955,0.521766999822346,0.503894019307181,0.526362007363959,0.527306980833591,0.52807200123453,0.532270213062797,0.53510758502776,0.518348711540077,0.511499748882381,0.515558103838396,0.541632107877693,0.524659979217956,0.521924132343539,0.520876907803708,0.534173676965593
-640,Grasp,12m,0.51133840174847,0.539944698293402,0.528027169176443,0.525405879328809,0.521704367135572,0.505198124901046,0.524397880826796,0.529004877384076,0.526021660899872,0.533488777688344,0.533733956091907,0.519746576834955,0.512558061186211,0.514136512281873,0.540614637009111,0.527108083537183,0.519906464311587,0.519042455560363,0.536677456072421
-630,Grasp,12m,0.51265820612191,0.538431055300956,0.529751101317138,0.524828076034189,0.521621670844679,0.506362196648743,0.523094693827753,0.529417009060069,0.523130223384805,0.533362325101288,0.535707497065843,0.521311880730657,0.509906862380012,0.514460400722409,0.539844758019925,0.527509355697557,0.521277783804313,0.518812063840185,0.535152874846431
-620,Grasp,12m,0.514139026746869,0.535881410367179,0.53031125956084,0.526133642448414,0.522535850897996,0.507089441155355,0.522505754242727,0.530434265778671,0.521713657044565,0.533655506802934,0.536853189147809,0.520855925195246,0.509915984190253,0.513686046275483,0.540739434517127,0.527431392186433,0.522090456505818,0.517552492252607,0.53398047204061
-610,Grasp,12m,0.514269837849534,0.5333809784611,0.530672374342206,0.5278515741139,0.51963196294346,0.50908464162288,0.521038289137895,0.529939811328515,0.520668110761931,0.53405599045807,0.538977124209872,0.521468332740785,0.510122427648913,0.513159273769748,0.540547813127959,0.527654224682181,0.522385004867686,0.517630740256879,0.532539786037731
-600,Grasp,12m,0.51576949671363,0.533569548709547,0.530735737970724,0.528780618252368,0.519643505574448,0.510931001399296,0.523087714051367,0.531535735341324,0.518544134551779,0.533908183454981,0.542773667945186,0.521888681941814,0.511558167327806,0.513014514992516,0.539926064807696,0.529112853532033,0.525358291312541,0.515279051544014,0.5296618371381
-590,Grasp,12m,0.515935805737056,0.53393757644692,0.533039598320191,0.527002492593457,0.521274683742596,0.509783779737073,0.525185497927947,0.533432231711665,0.516115887470575,0.532552466418908,0.542782230178225,0.522304580261721,0.512579555716384,0.514344311201928,0.538590584430243,0.530616184309534,0.526860274963364,0.513364562406144,0.528821141697828
-580,Grasp,12m,0.515735637460826,0.531499584221619,0.533313528386113,0.52611720158046,0.522740101103325,0.510099485348408,0.524304524765425,0.532067548581213,0.513906050892575,0.531281373881213,0.543996070199113,0.521426785873605,0.513339416222984,0.514198754963549,0.539042457917654,0.531560063930981,0.528084543412864,0.51257966096641,0.524491396055863
-570,Grasp,12m,0.51630901861316,0.532586682080528,0.532648912627913,0.524336074447169,0.522368523724681,0.510281358113104,0.523880968203909,0.534022383880391,0.512154143857784,0.531314944296279,0.546130837847983,0.521610863698207,0.513606238915919,0.514263052334211,0.536961304660955,0.534647134777127,0.527356550442859,0.511216377213201,0.52136529955015
-560,Grasp,12m,0.515835367946943,0.53256355493375,0.528773854236296,0.522902581931778,0.520509633125322,0.508800058098657,0.524245991636262,0.53590856822918,0.51165313588311,0.529876995398356,0.546866548358723,0.521860840616701,0.515115374632773,0.514579414303675,0.5357260864532,0.536374014489417,0.526437966036718,0.51077286889854,0.519435829956546
-550,Grasp,12m,0.515501180224709,0.531595586798124,0.52637631343732,0.523422186020659,0.518462463994231,0.509934434333324,0.523731994645389,0.538044117127627,0.511543161082746,0.528133041894535,0.547089836880109,0.52347740990566,0.51740913277854,0.514506544338072,0.534812982007656,0.537057579791093,0.524364741719586,0.510944363306732,0.515575696497618
-540,Grasp,12m,0.513294378233942,0.530442958245572,0.525011742606616,0.526015978381711,0.517769699553695,0.51134257807742,0.523260649545677,0.538259168256995,0.510488407542487,0.527812628034248,0.545290301634164,0.524058213089288,0.519368217318858,0.514759685841551,0.536254436955584,0.54061694890626,0.520208538744856,0.511349416872987,0.51539040090631
-530,Grasp,12m,0.511908709512179,0.529746110598512,0.525094838489659,0.528681167898145,0.515318371195842,0.512125682855521,0.527058192886836,0.537682519748777,0.509457012882773,0.525881437251955,0.547215041491587,0.524021732441548,0.521946676278777,0.513448997068664,0.538047376468246,0.543152388560059,0.519882622750544,0.510718642317721,0.513976622714867
-520,Grasp,12m,0.510494828704148,0.527692097898999,0.524193204716722,0.528622232997152,0.517802670172292,0.511566878717541,0.526935976069233,0.541215653780735,0.50731055044759,0.525570300165934,0.545396313777495,0.523038324313984,0.525173994604905,0.513890679869443,0.538427251833812,0.542928041832518,0.51625109379487,0.510824872648334,0.513350148762798
-510,Grasp,12m,0.509286712377573,0.529444498773154,0.527114265268854,0.529520659055796,0.516479044205699,0.509796138368814,0.527543374079565,0.542376683371853,0.507296632061898,0.527912701716879,0.542723808303285,0.523378844875899,0.526587725330371,0.51460773649876,0.540290881349625,0.544440055781039,0.512648117375297,0.512541819196277,0.513097222421659
-500,Grasp,12m,0.508616352471226,0.529694620162235,0.530060522099962,0.528775575670154,0.517842789472517,0.508404654040079,0.524814970566203,0.543883163810569,0.508380268698132,0.527987518429441,0.545125364517272,0.524100395519247,0.527516004899422,0.51515765094799,0.540743069409141,0.543492298713215,0.509826086134616,0.51355930486375,0.511509812765205
-490,Grasp,12m,0.509441455194273,0.530710304621747,0.534237411556762,0.529333096035531,0.516735219036443,0.50869838199867,0.521948764257802,0.546725723850075,0.506675329648301,0.526754273811242,0.547614508824839,0.525152873032921,0.526193945895404,0.515078510830644,0.542881514123005,0.543035325765839,0.513327774272918,0.513894454967425,0.513936681885334
-480,Grasp,12m,0.508979835564427,0.530814442229622,0.534745825415339,0.528428939539307,0.515570917498447,0.506694528289882,0.521393248600683,0.550455893288682,0.505941901041022,0.526395280442632,0.547098702720917,0.524367939891263,0.525817674322449,0.514636512258961,0.543548038127837,0.542033355677232,0.511572547312262,0.514868343874973,0.516009346373387
-470,Grasp,12m,0.508411992020743,0.532265696915207,0.534572238750955,0.527958683779213,0.515955352292698,0.507637653115813,0.522070045027049,0.550788067742437,0.507043192321681,0.52629035796525,0.550175568477473,0.522207708322458,0.523980289046745,0.513970665986484,0.54205055941823,0.545073980041218,0.511692013062432,0.514147221385762,0.516782356281848
-460,Grasp,12m,0.507253810001514,0.532068973311433,0.533665214172535,0.528691879277871,0.515903324187507,0.509482487470875,0.523677198539511,0.54884214325626,0.509535919758557,0.524418160524491,0.556085471623396,0.520013540378022,0.52370268468321,0.512804735911207,0.540166971307142,0.548613421956819,0.511775705113232,0.512545170261747,0.519869350894606
-450,Grasp,12m,0.50883882368269,0.532230844767226,0.534290860425651,0.531831684499788,0.515729279713834,0.510044883980713,0.525572440246427,0.546683500399083,0.511735323883115,0.523249652255557,0.559162001782229,0.518763984161205,0.52380958388422,0.511992752494046,0.537446136220971,0.545254452876322,0.509608721638601,0.512239737122823,0.520400734947656
-440,Grasp,12m,0.508482941386991,0.532947848563078,0.534137444011056,0.534321491939494,0.515307231644243,0.509581695860043,0.526804184089141,0.542713249749105,0.510915055536323,0.52217960695033,0.56243887670277,0.518149392129983,0.52498074051782,0.512613833778933,0.535239422121182,0.544589137170746,0.509115173374524,0.51249594781204,0.519554507977617
-430,Grasp,12m,0.5076127380032,0.53227230835642,0.531777879694056,0.535334075118352,0.514858557466257,0.510256476304381,0.525290948325465,0.540221352128311,0.512033326681595,0.519677899982301,0.567188500546807,0.518120720063985,0.52655863801442,0.514826857141907,0.535039559396135,0.54625622540126,0.508689224531673,0.514118456621306,0.517188338171123
-420,Grasp,12m,0.50769960915303,0.534272869663331,0.528888709696797,0.537416145460991,0.514242388017731,0.513807538729144,0.525753650132245,0.538170444123211,0.512538506332029,0.51898768951807,0.566761619518957,0.516699146804706,0.527082611197451,0.514998235886913,0.533356787121597,0.544328886655659,0.505356759034296,0.514757644512928,0.517448301366343
-410,Grasp,12m,0.508412223758391,0.536553730264666,0.52869778336082,0.536267507360903,0.5143439023538,0.516576985967687,0.528731507518178,0.53576591135807,0.512274832129614,0.516100338046151,0.563028041960526,0.516638505211202,0.52612592533163,0.515633825960902,0.531226699832281,0.542172723261498,0.504319086403272,0.51424556728613,0.517334970158048
-400,Grasp,12m,0.508559861878012,0.538532360660346,0.524189947703638,0.534457512493836,0.513963056767142,0.519997178717857,0.529344493872564,0.534033109447187,0.511972580214789,0.512895784614352,0.563017979878254,0.516860365939292,0.524912270037759,0.515393844619418,0.530034232462376,0.539549417596081,0.503812062762489,0.514667648998834,0.519084653577571
-390,Grasp,12m,0.508750166752452,0.540540500111422,0.524330113147173,0.530011286964164,0.513822139091227,0.520217927806406,0.530688380535125,0.535600194869193,0.512929262074791,0.512720733642259,0.560528012750628,0.518529571909124,0.524116728773532,0.514950178560062,0.531596731466548,0.536731088811883,0.507046649722197,0.51539229186153,0.522527365077752
-380,Grasp,12m,0.510780859494721,0.541740941446539,0.525800630131249,0.528015305297895,0.514499734816053,0.522764312540325,0.534492852715746,0.534502379067153,0.514435076599224,0.51318362761801,0.562020100034347,0.518967570104633,0.52423722695717,0.514324405967893,0.530375145079587,0.537507882984083,0.509343994848296,0.515164729472238,0.524042624593483
-370,Grasp,12m,0.509567847027401,0.543213178484052,0.527516698232287,0.528002377308826,0.51376533247876,0.523354817288284,0.536865950596955,0.533222265461338,0.514445749998612,0.512708507650613,0.561098885056833,0.521139451908006,0.522624963664526,0.513233945252083,0.529474468829185,0.531660802524479,0.510273570106279,0.515719780849956,0.525378262444722
-360,Grasp,12m,0.510118509247101,0.541447356521552,0.527805014526593,0.526241702983781,0.513023369539818,0.525241906476452,0.537443388331221,0.532094621884736,0.515475030905016,0.51541901835865,0.557297605187937,0.521880590682236,0.522891182696415,0.513223918210649,0.526993461238139,0.527548035438409,0.509755320903237,0.516269015327785,0.530111260506446
-350,Grasp,12m,0.510124698417333,0.541402785567214,0.529448557650862,0.526032275500632,0.515211270142082,0.527804406228518,0.537435279275293,0.531408357958349,0.515610165397456,0.513787673604852,0.55901234721548,0.522380692516866,0.521130252510966,0.512261519674636,0.529567456029738,0.52783745583662,0.510299252552032,0.517141509791905,0.531279373555982
-340,Grasp,12m,0.509668598672464,0.54063927262846,0.531629145024664,0.526282897182352,0.517941065310332,0.529939113155065,0.537517692578971,0.530300327208272,0.516293222810849,0.513726381632803,0.557974021185312,0.52145807463741,0.521300036682553,0.51159789210994,0.529358971772036,0.527495299819367,0.509006210926139,0.51661967230571,0.534180957272417
-330,Grasp,12m,0.510374362038975,0.542127711241844,0.534148469891379,0.525082505549151,0.520061499171453,0.530325772691732,0.538046938974999,0.531022488785965,0.518686965190107,0.517049542044244,0.55684112066289,0.521447902695385,0.520876909703291,0.509853275732476,0.531320985345859,0.525841046623666,0.510780582097873,0.517561873422185,0.536621442146168
-320,Grasp,12m,0.510068570431938,0.542904452284683,0.535451969825261,0.524974943726128,0.521008032428642,0.531156440728325,0.538433962080309,0.53222042702316,0.517461527798605,0.518127161636244,0.557664800338443,0.519566316560474,0.52105300951013,0.508355703316863,0.531982259298377,0.519625288653218,0.513038753467484,0.518692944871413,0.537361795267106
-310,Grasp,12m,0.509374129049542,0.540834961098065,0.53352062638188,0.527541978789445,0.522589292173737,0.532236597120493,0.539219144509096,0.533958563537785,0.517704639677836,0.519161748648345,0.559944829958973,0.518819080615889,0.519721568589017,0.507168637916741,0.533420723284622,0.518480975670438,0.513097158276945,0.519051856179984,0.536893537238793
-300,Grasp,12m,0.508648783468057,0.54175010603143,0.530968161741568,0.527632001991898,0.525311387328834,0.530207667159255,0.541332753203666,0.532972043504434,0.517160387812964,0.522580853113018,0.560548064637868,0.518587237903458,0.520722644137952,0.505788610250187,0.534615469052943,0.517016272821986,0.511154837217097,0.521040276071295,0.535505010681786
-290,Grasp,12m,0.508281487968221,0.541028545217231,0.530091078610217,0.52646868296506,0.525722685228941,0.531816156721159,0.544565004087116,0.533447456288148,0.517649161384223,0.525827842013802,0.563816165612486,0.518639937052386,0.520982551970043,0.505404235526154,0.533473856021084,0.518966856023695,0.508390926871206,0.521691499032476,0.535774842854791
-280,Grasp,12m,0.506234803546461,0.538678811826363,0.528061423218281,0.52597829979372,0.525128214310313,0.532872744692545,0.542475189521755,0.533272255504966,0.519159693126134,0.528386171757682,0.566838801415319,0.517721228177649,0.518863199759087,0.504668779683819,0.532359591027673,0.520612513748477,0.509737169172804,0.523565426274882,0.533861531495962
-270,Grasp,12m,0.506899252089743,0.537974922464115,0.526028248805819,0.527453097871408,0.525382909974276,0.533351475666754,0.544988955214231,0.532723710075819,0.523195104068384,0.529533617262173,0.574340315958221,0.517450325441606,0.521396970081311,0.504172431384509,0.528948443840082,0.523049888639746,0.511202029809452,0.524093449517792,0.533484288101615
-260,Grasp,12m,0.507691171856948,0.537711872982155,0.524861121121835,0.529231426810143,0.526122940436816,0.532038881679665,0.547108197001982,0.532245116538874,0.523248724908281,0.533037677819295,0.576456324160749,0.515858175121186,0.523223246150127,0.502533274317615,0.528318317432259,0.524273123681105,0.513887135540574,0.523408763973451,0.534109573744548
-250,Grasp,12m,0.506798427146982,0.535259825285177,0.523953013455629,0.531115390784361,0.528960932690763,0.532183109008123,0.547815240694375,0.531554966992068,0.52272162747266,0.535714814955239,0.576472455332476,0.513732499918305,0.523680820529072,0.50303842825242,0.526867022500905,0.526312831354443,0.51491282093303,0.526335037001686,0.532241755794465
-240,Grasp,12m,0.509031212069876,0.537814290577167,0.527264650343007,0.537599768689516,0.529766896722452,0.52892551566733,0.547867550749183,0.530846723516282,0.523920720783089,0.536610670344742,0.571248147775795,0.513279408048755,0.523980134832486,0.504643518972157,0.527080763143044,0.526600023132694,0.516275293130081,0.526052735945345,0.532174083452056
-230,Grasp,12m,0.510223988418256,0.536531632974864,0.525477953121253,0.539387980619018,0.530030570189707,0.527476541778198,0.549023472339155,0.532386469014835,0.527306679858137,0.53920672517611,0.576719877474201,0.513183658927464,0.525625151611301,0.50594893417715,0.526391130752718,0.526047255319181,0.518288164613984,0.524459148041489,0.52967514544092
-220,Grasp,12m,0.510489918885703,0.536246029508829,0.52675645437527,0.54224332340956,0.529931935243875,0.528049946820021,0.552216043141421,0.532557434766217,0.525584995525946,0.542453555158597,0.573827021023602,0.51274683681083,0.52343823691789,0.506305981451911,0.525259600771282,0.525991470183253,0.518905667527959,0.524011308246022,0.528249265509435
-210,Grasp,12m,0.509572645397402,0.533441092936143,0.530130664940363,0.543641495248539,0.530595703701458,0.52586363046269,0.551310498387018,0.531902549066569,0.526184792824087,0.543630256708399,0.577390515440207,0.51371413929795,0.522575144163498,0.505110361819663,0.524763763820427,0.527000775763417,0.519093954449494,0.523134081562519,0.531272053984974
-200,Grasp,12m,0.509192504253453,0.529907381933271,0.531293904652025,0.546073524924373,0.531551240814538,0.523612387730163,0.553909333342032,0.531184592149191,0.527114112077778,0.542295512730314,0.574363470222748,0.514991637962642,0.521067017720243,0.503988869358568,0.525174023240997,0.527592617157281,0.520276913502002,0.522088913083584,0.528784761646551
-190,Grasp,12m,0.50925475520421,0.52942641295897,0.535125434700286,0.54793108572459,0.531040155010393,0.523994635621598,0.54884024171903,0.528887387157672,0.527559636345725,0.540052262834241,0.567746194625773,0.517134962832912,0.519512541107893,0.504512154871785,0.524876004478276,0.529496343528838,0.521889918269191,0.520686895619682,0.526214926835388
-180,Grasp,12m,0.509125218738275,0.527289040865162,0.537636556854364,0.549803526319226,0.531734864498052,0.522274117483036,0.545645344930876,0.528081548541352,0.527461037757107,0.536683665616784,0.566645023644942,0.518178179296261,0.517465432996713,0.505105430873514,0.526546086854533,0.529865508687338,0.523547868962977,0.519166591639171,0.524306365623809
-170,Grasp,12m,0.509675159787377,0.524802877977154,0.538375515043561,0.550265744228937,0.532748213757458,0.523949163671746,0.545940106662531,0.527591196237516,0.525059014649919,0.533635456048628,0.564488976016919,0.51870316973639,0.516034893475711,0.505956378500296,0.527140999904084,0.529635546329364,0.523789565881873,0.516597284493392,0.523684493586516
-160,Grasp,12m,0.509492154856779,0.521394050531158,0.539582517182032,0.55473099016089,0.532434155642135,0.524415338446785,0.54239059879898,0.525965990159509,0.522760409018993,0.530809117932232,0.563935194753715,0.519516644404127,0.514326849917438,0.507294721988262,0.527283460902983,0.52827318849321,0.526667302303454,0.51480245277124,0.521809895994864
-150,Grasp,12m,0.509562870073093,0.522240842683115,0.542592799600157,0.554287232448876,0.533053954508718,0.5251963579463,0.546200179286874,0.526709275627695,0.523131956523588,0.529157206783428,0.559511403979441,0.520524116154048,0.515229024957196,0.50654936201315,0.526739599243687,0.528069835572214,0.529266519340449,0.512062036682023,0.52016137376078
-140,Grasp,12m,0.508439905423858,0.522415680524581,0.541049539804587,0.55378346122319,0.534420815006563,0.524774695108285,0.549848000712703,0.527830311278169,0.522455513468709,0.525372129491553,0.555109391887353,0.521348206160083,0.515045251736383,0.506731998056855,0.527182259981931,0.525600577420825,0.530614566943161,0.508171710017562,0.52071512234769
-130,Grasp,12m,0.509653226276914,0.521718787672073,0.540071109990978,0.553812807719652,0.535594614510152,0.524034159443958,0.550881835562649,0.527620416700867,0.521501667349318,0.525694330519688,0.550701761447758,0.522657723053987,0.514925776814381,0.507920646383789,0.528374674399584,0.520815639791553,0.531163993214386,0.507112933766217,0.520178885992549
-120,Grasp,12m,0.510175844821474,0.521776671465148,0.542663800117093,0.551390448323851,0.535022544328742,0.524166046780274,0.553929329252454,0.530107936554,0.519946850535868,0.525888988107082,0.550167094659161,0.522232162336125,0.514388955477709,0.509421868098654,0.529828349078754,0.517964491345145,0.530840542308477,0.506160312050343,0.520864693005984
-110,Grasp,12m,0.509340773268198,0.519884621408936,0.545266736764528,0.547462368412943,0.53390310694248,0.522969764627967,0.557757864256261,0.534363927551105,0.518565303016263,0.527496324786187,0.550215582733541,0.52039120774749,0.514940928945582,0.511101794495013,0.531337703686494,0.514661204568517,0.531251942588184,0.505429221916384,0.51860863041466
-100,Grasp,12m,0.509243080003126,0.518285252142524,0.545122197823816,0.543788393392598,0.531504707529998,0.522182656815048,0.561894899589381,0.53605117445325,0.517791687465719,0.527462243098904,0.549436864270278,0.519228543465954,0.513762715128771,0.514630519977655,0.531930492253913,0.512814253756389,0.531670732607257,0.5067311366205,0.518439623790915
-90,Grasp,12m,0.508464591677292,0.519229288746364,0.545311382172748,0.536272047406148,0.532295585010847,0.521964078957709,0.564756437160485,0.538244420624192,0.516725259922122,0.52811945519655,0.548295544684933,0.518163385149033,0.513071091868746,0.515800391789043,0.532028012485068,0.514618415725462,0.533800194070141,0.507481864910441,0.520423870039379
-80,Grasp,12m,0.509877870155115,0.518585528927978,0.543871467304849,0.53344109737579,0.531366271080973,0.521825780016899,0.563294710528553,0.539481160176942,0.516624401713406,0.529123477058784,0.549883771922724,0.517853683340379,0.513401200616,0.518034533413039,0.531106854178634,0.512240139441398,0.530304589298373,0.506923743714279,0.521560370847134
-70,Grasp,12m,0.510359683217318,0.515052135360412,0.541952246027444,0.531549503908971,0.52981315802152,0.521615486377477,0.567631676022964,0.537829999482733,0.517437974412384,0.530133713217684,0.551618081832713,0.519230582480771,0.512205938862514,0.516231026249794,0.529566553679562,0.511040337590116,0.529927051629419,0.505732439997618,0.522452881327227
-60,Grasp,12m,0.51063625758589,0.516091585784836,0.54356067037516,0.528962517530659,0.530159624730252,0.521445427657086,0.568921035335685,0.536856199269989,0.516626302637963,0.5302981889459,0.553897228667048,0.520521107626634,0.510864802327718,0.516216510943556,0.52780027724674,0.510742768543124,0.531049260988163,0.505907292496008,0.523354620837912
-50,Grasp,12m,0.511666141622329,0.517682627833516,0.54698424515716,0.529590636213517,0.528523643335305,0.521537211030002,0.566984667688379,0.535622622246179,0.517611268894345,0.528726428658068,0.554977288762733,0.520535453639439,0.511928825787617,0.514715884707915,0.525950008503055,0.512238091276472,0.532980511336095,0.507677957662528,0.523110909608675
-40,Grasp,12m,0.511601762636256,0.51888314783291,0.548424721052167,0.528725773102579,0.527151728429423,0.520262688828448,0.564756728110052,0.535075412515937,0.515907755031964,0.528745576491575,0.554463140941828,0.521721566659085,0.511595327209197,0.511291446803972,0.526082642484821,0.514154904685029,0.532420783122233,0.50812520368216,0.522300372167546
-30,Grasp,12m,0.512510142642791,0.519700050161649,0.547848847508281,0.529118120797324,0.527342575471848,0.521585970379466,0.566022693657761,0.535367329964892,0.517175906967545,0.528235017255382,0.552969460458553,0.521639434332697,0.51215938772863,0.509626417845897,0.527879442970912,0.517237625415348,0.533314518996871,0.507637852138604,0.521228103854875
-20,Grasp,12m,0.511515844799444,0.523111927224772,0.546343495088551,0.52981386334622,0.527636379978932,0.519760249410372,0.568237106295211,0.534660050643958,0.519788214843133,0.528667429898656,0.552445004786953,0.52040630759536,0.5106139038498,0.50915238718311,0.528744669884479,0.519129822402074,0.534024963042845,0.508368966083546,0.519839584866066
-10,Grasp,12m,0.511064097935512,0.524167660280502,0.541657721570887,0.53107566690878,0.526196009862938,0.521318426949738,0.570577033470868,0.533287933256513,0.520495546990699,0.52563705313588,0.551785542144165,0.521515428830416,0.512305234257761,0.508727320470729,0.527682260495302,0.526439336026424,0.53550551685387,0.509097652308114,0.517418915217867
0,Grasp,12m,0.510253919833697,0.525158890839194,0.540705342482316,0.533324913364919,0.524908042115266,0.520704883563262,0.568177761280536,0.532991294468359,0.522881778450708,0.527067954569119,0.549733598676977,0.522644445431571,0.511543745466409,0.508564837672129,0.530570413970656,0.529045046588776,0.537294928649363,0.510212822605469,0.517472033434674
10,Grasp,12m,0.509253098921908,0.526713661844623,0.54001290339729,0.53240403151269,0.524131578006977,0.5208974321163,0.566543112682182,0.533267727561829,0.525778895230955,0.52773442937053,0.549032230811942,0.523953721945147,0.512364732086791,0.508735119923084,0.532494353177644,0.535323382430208,0.538100012187473,0.509767900175036,0.517697011934093
20,Grasp,12m,0.508676125660052,0.52826783932405,0.539024196784961,0.535878121678472,0.525014939751521,0.519952656767524,0.569610329033971,0.532747502720279,0.528665637647467,0.528574137363426,0.544850842810931,0.524442165728773,0.515275472271659,0.508401376502481,0.532414858026468,0.537734929476597,0.535734392914513,0.510555859610692,0.518570942911489
30,Grasp,12m,0.5078131954292,0.529361497189722,0.537555441229892,0.539388856729532,0.522849342364596,0.52079265551836,0.56461477720511,0.532421834863051,0.530531313325161,0.531002454317187,0.540198671175165,0.524779270842496,0.515670603652033,0.509034954473032,0.532441963036976,0.53875668436331,0.534034078186509,0.511211690423927,0.520018302899419
40,Grasp,12m,0.508526589405805,0.530337043133151,0.535170361746136,0.540005725722238,0.522742402329272,0.522303482521792,0.561536951888125,0.531740342196658,0.530876375578271,0.529393679881747,0.541515881037378,0.525488832876658,0.519790664671309,0.509328582797598,0.533060231765547,0.541803703771278,0.532212479708665,0.512369865687634,0.520097345475636
50,Grasp,12m,0.509386859448956,0.529232738542438,0.532938927510203,0.540625412405026,0.521930122387592,0.522184787113101,0.558997003806975,0.532454950635792,0.529528914303089,0.52844812523161,0.546322908827884,0.526974601073658,0.518660713420817,0.508773214519028,0.533148573030046,0.540712365692172,0.531872948244658,0.513143542177072,0.520742843902915
60,Grasp,12m,0.508802283902249,0.530416962817342,0.530082960647392,0.541095707271297,0.520425917832423,0.522071137970517,0.556589670478294,0.531061766980395,0.528918412524664,0.528771365047006,0.548412806848165,0.52781779507024,0.51752315676134,0.509874714250083,0.536078599537144,0.542848916230061,0.532355662435746,0.514644080981186,0.52270017972471
70,Grasp,12m,0.506544845485554,0.531796104463376,0.529835701084085,0.541936519102559,0.520581900968388,0.521918712395405,0.553723912286197,0.52977622534199,0.525450939252196,0.528165064243361,0.555747786695165,0.528750374065255,0.517788744172592,0.509011874523978,0.534654360672944,0.544342072173974,0.53319313683216,0.516454317843702,0.524574787935169
80,Grasp,12m,0.506896507401191,0.532104211053044,0.529417758036673,0.545769829105071,0.519118530200902,0.522085163821418,0.552535106916201,0.528793590678156,0.525875017655608,0.528575006402717,0.564052115950423,0.529627995958704,0.513781525506936,0.507153777671464,0.535750610878344,0.545579590147027,0.530419523717668,0.516316771242746,0.52540541898456
90,Grasp,12m,0.505395234399196,0.532924683129697,0.528905682729144,0.548544568478016,0.51681561645082,0.524718754912181,0.5504577330712,0.528173772598299,0.52403322580067,0.528844999618313,0.567161910157184,0.531718159905828,0.513879197759578,0.506003608489533,0.535889291502021,0.543634535729717,0.526064945672823,0.517021343682834,0.526817878658611
100,Grasp,12m,0.504246278740973,0.5333583656046,0.529961930178379,0.551042008337147,0.515113913590353,0.527132912997177,0.550405932962323,0.528026183141683,0.523772561615768,0.53069271328111,0.57131420752341,0.53154051825023,0.513944233482718,0.503980399924057,0.536690826667477,0.542851108500608,0.522845844432561,0.515868727245995,0.525240867783763
110,Grasp,12m,0.504832091986266,0.535220938390374,0.529254758051242,0.554614445742776,0.515121566934931,0.530926942960507,0.548675753194037,0.525844359392637,0.523556731318911,0.532995376019262,0.572022599240478,0.5327141589165,0.511855127121933,0.503012889102989,0.537827120971484,0.543926674382111,0.519333258861669,0.51487100667326,0.525186655973831
120,Grasp,12m,0.504334178744785,0.536591271134014,0.531114340392883,0.557027274401047,0.514743310519057,0.532367627318701,0.549437495029441,0.524352141866277,0.522180156414348,0.534468578933864,0.571532562563907,0.534432050749718,0.510442044014856,0.502024493544614,0.536790037993948,0.543393797779711,0.517460281483063,0.515530475803849,0.526159189068477
130,Grasp,12m,0.505201616183934,0.536721495127545,0.534026367103415,0.556543632992011,0.512076293259736,0.532026425273239,0.54798273639881,0.522589968253807,0.521511347582217,0.534713966376818,0.573128857916818,0.534039209227328,0.509005988376833,0.500396284608832,0.537718365575726,0.540879511714384,0.515540494392021,0.51497456882462,0.52889658462836
140,Grasp,12m,0.505780855312477,0.536511381108938,0.537672021889893,0.556279189894022,0.512949139184947,0.532630170981221,0.546793305764317,0.523614736645815,0.520389187977817,0.532818729785073,0.572311815548385,0.534185862307031,0.508697236206145,0.498617696823902,0.536218552513474,0.541136128500522,0.517287405546385,0.515748680440555,0.529610096026735
150,Grasp,12m,0.506409560624342,0.536226706201935,0.538421953339855,0.554678817944885,0.512368671603023,0.53124693508838,0.541071711985771,0.52124371181359,0.520728813235296,0.533423868119053,0.57173840792666,0.532271182993037,0.508913287805212,0.498362100917051,0.534291093913973,0.540555412276569,0.516018703647113,0.515020607830298,0.52959720380148
160,Grasp,12m,0.506501174015343,0.535796373535993,0.536450166443574,0.553709466714373,0.513515810509333,0.529925253106088,0.54034881521441,0.521855630237852,0.520295437322518,0.532918891170069,0.571620034730092,0.529679122941109,0.510781757922269,0.498213823661999,0.535187950111467,0.541368232748532,0.51733484652045,0.51496420563715,0.53047444464566
170,Grasp,12m,0.504809216372781,0.53487898368671,0.535599759445808,0.554052066601349,0.514061664530873,0.528054030991701,0.537607823324716,0.523293952546704,0.519239989602756,0.533475774472892,0.565900588302716,0.527831083780755,0.512490851556414,0.498219489790084,0.536526606271727,0.541002931489491,0.518137767530521,0.514621001031447,0.532014532012502
180,Grasp,12m,0.504702275512261,0.533144347798589,0.535401710074333,0.551857900957999,0.514802574823255,0.527741823591833,0.535597165337159,0.524575984832462,0.517523394534054,0.531513150291957,0.561716848906251,0.52593102839883,0.513430037779305,0.500068227121383,0.536312035559982,0.541234830432462,0.515874827967519,0.513432463098564,0.53061418073759
190,Grasp,12m,0.505753869129178,0.531027708820105,0.536582350769479,0.553117746322326,0.516609256816659,0.528180424582287,0.532079593873559,0.525843529255174,0.518220809451124,0.529164919403514,0.558055579153642,0.522768943027477,0.512338560646276,0.500280797848369,0.535130945612076,0.54090950709889,0.516737570600735,0.513654793610808,0.526248149317075
200,Grasp,12m,0.504986134607757,0.5296911584873,0.538250815189557,0.549327323607943,0.518896269089244,0.526559738537779,0.529983882096482,0.531924260345933,0.515889318807922,0.530344939268023,0.55689616616296,0.522839620266203,0.514640245276788,0.500018551085948,0.537470865822165,0.54091192177547,0.515695881825953,0.512348657299324,0.527758443289273
210,Grasp,12m,0.504740523128908,0.529749978537043,0.538161236405116,0.544527427273749,0.519575237115607,0.528877026810665,0.529800067630045,0.537007892247278,0.516763859435294,0.529135366696379,0.554094101342285,0.522956092459906,0.514389603809594,0.500664478010815,0.538703910606135,0.541482046811044,0.513576915494391,0.51242025925853,0.527341701132188
220,Grasp,12m,0.504440532250608,0.528682843548142,0.539000464010718,0.542581491731895,0.52289891798163,0.524541194989728,0.529900685878897,0.539581883684815,0.517545196995604,0.530701672314506,0.549918684977249,0.522667339553845,0.513055232859278,0.501733609560789,0.539112491609649,0.543684472797879,0.511008169414498,0.513533361304419,0.527901167390487
230,Grasp,12m,0.505409910383554,0.526983476425668,0.5352177379951,0.542109197297736,0.521428196705046,0.527888941411882,0.531902784976385,0.542561750730617,0.518163641799489,0.530421367205156,0.544736398669087,0.522303581562083,0.51359068422665,0.502985819467812,0.538413510849836,0.546082430684376,0.511830025900719,0.512599494100645,0.525443874834601
240,Grasp,12m,0.506662676401252,0.526576714826054,0.531560026791311,0.538101629569334,0.52132489693382,0.525990524219146,0.532961459873213,0.544438019128281,0.519355638604572,0.53019435045056,0.54249091050655,0.523309839129302,0.514621968813434,0.503209128037068,0.537919890221972,0.549719001731952,0.512440012354265,0.512948417351967,0.52621726521486
250,Grasp,12m,0.507831038651203,0.527935616907781,0.5281340974741,0.536057419286658,0.520934013286378,0.525368541010617,0.534182786701691,0.54714115199289,0.520003130057584,0.530869397054398,0.539317645104209,0.522035031927108,0.514896115005976,0.502765679170485,0.53781825209807,0.550233905523055,0.514438467138756,0.513212387796651,0.525650762126401
260,Grasp,12m,0.508039512203343,0.528544100416367,0.525586236938866,0.531322291697266,0.519146182038895,0.525560851626758,0.533687638042003,0.547012479523096,0.521874142369614,0.531135650370976,0.534427390534954,0.522651766614971,0.514405829793201,0.501869039843482,0.537163284552626,0.554913063818036,0.518358098178812,0.513061539283233,0.524487042966639
270,Grasp,12m,0.508924159508588,0.530213956672326,0.524294660265257,0.527471898791419,0.517652207616845,0.525149981548961,0.535608994283396,0.547216172791567,0.523658852453011,0.528137977346576,0.53035980163155,0.521672628339213,0.512925138261855,0.502157338777957,0.537770887600478,0.555132453729651,0.518480116262161,0.512929151792407,0.524377499875823
280,Grasp,12m,0.510433610751335,0.529866768090415,0.524084340648173,0.524270093442398,0.5165655712755,0.526218920064077,0.536877081389893,0.547256080653327,0.526133861353769,0.527069406866465,0.527893487838514,0.520996707412866,0.513287502232685,0.502852743141201,0.537888581011497,0.553965104487324,0.521220919496702,0.513209679508553,0.525928350977114
290,Grasp,12m,0.508899964735257,0.5299717977201,0.521278156758022,0.520629907537556,0.516956190887281,0.526749188322043,0.535747151520597,0.548441288228676,0.527132619932295,0.526695662061483,0.530855853637965,0.519423079912371,0.515751074349944,0.504014359868793,0.538520995137756,0.554015521023317,0.52206976643595,0.513840490347162,0.524085519183843
300,Grasp,12m,0.508435572224,0.529586687733646,0.521603088517376,0.518357047701142,0.516300278454747,0.525873041801707,0.532902416217133,0.548349817088054,0.528790722787349,0.526345813463386,0.533371487250894,0.518543957322868,0.516164634710701,0.504213646135337,0.53828654527775,0.551842694669228,0.522875645373161,0.515260838653488,0.525008990969943
310,Grasp,12m,0.508529909284249,0.528886405752933,0.520999098293688,0.516157162887181,0.518045489362013,0.525881519133115,0.531429491947651,0.546434803626589,0.530311614511061,0.527194615389128,0.530139723211138,0.517746185023636,0.515111008685666,0.504855073106709,0.539896563507328,0.550010039247463,0.524444608136656,0.517985843500717,0.527169324465922
320,Grasp,12m,0.509104629811103,0.530376618710395,0.520146325966404,0.514243815128361,0.518817446642058,0.522647662686583,0.530674686230816,0.545543191171053,0.533040219822333,0.526849873475146,0.528913443438571,0.516813349407943,0.515518011093006,0.505825459562358,0.540415313780925,0.546386546091162,0.524200711325312,0.517901439635753,0.526893308841181
330,Grasp,12m,0.508809360041217,0.532053008970679,0.518810262222912,0.513736516358506,0.519793005936021,0.522290149504977,0.529129224439838,0.544399694920863,0.533096623959817,0.526144823212657,0.527477303158976,0.517160935642656,0.517857940139807,0.507164988648316,0.539697218426143,0.545634427418023,0.526144339035025,0.517929577564398,0.526056765337806
340,Grasp,12m,0.508234937499211,0.534125280598768,0.520299423629511,0.512434132764629,0.521064411076181,0.522332218196267,0.529876565704608,0.541263794279029,0.532986534611075,0.524081256987328,0.525247555362268,0.518329802809337,0.518082162210588,0.508376872070122,0.540357901728479,0.542954847531878,0.524577388566833,0.519932606815417,0.524359460301444
350,Grasp,12m,0.509610772098998,0.532569402408945,0.521870343394492,0.512645499624079,0.52247369124234,0.521355929810407,0.530131942724016,0.540707893087251,0.531899609558628,0.524932520313721,0.52142930448513,0.519527009731673,0.517768729610053,0.509683820507487,0.539406001302972,0.535337852704457,0.524279894787858,0.520739399122842,0.521188586282225
