Time,Condition,Age,connect_overtime_LA_EEG_12_P04_CTS_MTH_chanpair_12m.mat,connect_overtime_LA_EEG_12_P05_CTS_MTH_chanpair_12m.mat,connect_overtime_LA_EEG_12_P06_CTS_MTH_chanpair_12m.mat,connect_overtime_LA_EEG_12_P07_CTS_MTH_chanpair_12m.mat,connect_overtime_LA_EEG_12_P08_CTS_MTH_chanpair_12m.mat,connect_overtime_LA_EEG_12_P10_CTS_MTH_chanpair_12m.mat,connect_overtime_LA_EEG_12_P11_CTS_MTH_chanpair_12m.mat,connect_overtime_LA_EEG_12_P16_CTS_MTH_chanpair_12m.mat,connect_overtime_LA_EEG_12_P17_CTS_MTH_chanpair_12m.mat,connect_overtime_LA_EEG_12_P19_CTS_MTH_chanpair_12m.mat,connect_overtime_LA_EEG_12_P20_CTS_MTH_chanpair_12m.mat,connect_overtime_LA_EEG_12_P21_CTS_MTH_chanpair_12m.mat,connect_overtime_LA_EEG_12_P22_CTS_MTH_chanpair_12m.mat,connect_overtime_LA_EEG_12_P23_CTS_MTH_chanpair_12m.mat,connect_overtime_LA_EEG_12_P24_CTS_MTH_chanpair_12m.mat,connect_overtime_LA_EEG_12_P25_CTS_MTH_chanpair_12m.mat,connect_overtime_LA_EEG_12_P26_CTS_MTH_chanpair_12m.mat,connect_overtime_LA_EEG_12_P27_CTS_MTH_chanpair_12m.mat,connect_overtime_LA_EEG_12_P28_CTS_MTH_chanpair_12m.mat
-1000,Cane,12m,0.54961395792636,0.572726361004059,0.566266403075531,0.527297085495308,0.604145317222645,0.534721953104663,0.550082656360855,0.533284259920298,0.560541894382869,0.58722178831585,0.5530870780234,0.612092507822219,0.550577785649146,0.611378132165365,0.580102913043695,0.590445815232089,0.582748331305277,0.564545504004157,0.542825892879359
-990,Cane,12m,0.54994678993566,0.570869433165425,0.565542578294361,0.527498395872211,0.604239127888651,0.535418375179669,0.550487286754494,0.530927903584102,0.564060288986835,0.588958298308507,0.55525109768981,0.611305681826309,0.548251420474968,0.612764045852843,0.58135833493175,0.588354230070625,0.580908042155168,0.565423507745872,0.542675814869939
-980,Cane,12m,0.550721334722826,0.568925722713157,0.565067083186879,0.528286539681185,0.608624298416914,0.535783197106363,0.549941447121,0.530577193071313,0.567376690234362,0.588821984989462,0.558076789406329,0.611203446456247,0.549826785746439,0.61172929358349,0.582001840830659,0.588369291237909,0.57944977347296,0.56636714899793,0.543552383925681
-970,Cane,12m,0.550167466792131,0.568235056418278,0.564081208177384,0.529803749470707,0.609206626765702,0.535078553893765,0.549394200871805,0.529986649383813,0.569329152008903,0.586968294019716,0.560857924886595,0.610734821082308,0.54996777467404,0.611379137005328,0.580551561778522,0.588082916886974,0.577260927063826,0.566138418639661,0.543535099601938
-960,Cane,12m,0.54993826281909,0.569198443552147,0.562664394857858,0.530005707595049,0.611859541484736,0.536243121099394,0.549939412460616,0.527758603562589,0.573107495975984,0.585913635578114,0.561637270518938,0.610034772436195,0.550300827660912,0.611587526189207,0.579589895834085,0.587804858274272,0.576216412503642,0.565442487209051,0.545997725879608
-950,Cane,12m,0.549917401130008,0.570241083000331,0.561338662836157,0.530834166292082,0.613339684418016,0.535025014197496,0.549050168627331,0.528716607843731,0.576438448537673,0.585194800733577,0.56327656470383,0.608484108520011,0.549482940112772,0.611352419979654,0.581025810019451,0.587637516996221,0.575710094171417,0.565801987635701,0.546699808342239
-940,Cane,12m,0.549906562210074,0.571572452063969,0.562309114747853,0.53161540047698,0.616537885210983,0.534499046558262,0.546876818387001,0.529282678454916,0.57842519813789,0.583442732606477,0.566668408799408,0.607277369793723,0.549293923934439,0.609121118548342,0.579152437212084,0.587572142122409,0.574128444980857,0.565652852844147,0.546546993406447
-930,Cane,12m,0.54964414468072,0.574096769212285,0.561422919243114,0.532595862290147,0.616563986241013,0.533963025779146,0.546602334984407,0.529407061134883,0.580793811715434,0.582167141668161,0.567587059369328,0.60711075245929,0.550154342552973,0.607616970503916,0.579540754853512,0.588396378677217,0.575778758611946,0.565729074874107,0.546391463093094
-920,Cane,12m,0.549634753014952,0.576316070308198,0.561736850357876,0.533256849234604,0.619088511234271,0.533767157278017,0.54434337968119,0.530621356325199,0.582658283586511,0.579962294143817,0.568861646167064,0.605867620078998,0.550195400214794,0.604780136848648,0.578830063570488,0.586414346558682,0.575551411489194,0.565409029366864,0.547565993761216
-910,Cane,12m,0.550784227032442,0.577739528223801,0.563548935125888,0.532917938413494,0.622266574659124,0.533515792198077,0.544095955643047,0.53108003250206,0.583989964105204,0.57901684964267,0.571039489982103,0.60560758929684,0.551462569346863,0.604595099249466,0.578810591008023,0.58619325294272,0.576244371185638,0.564459702372524,0.550225305156082
-900,Cane,12m,0.5515020976698,0.578865561208652,0.565355353622978,0.532411785308004,0.62342887240606,0.531688974596789,0.544692602471893,0.53138977032703,0.585151859409439,0.576185926285199,0.573647063391382,0.605149200326211,0.552764064870805,0.604387699960242,0.578449818444747,0.586805454026947,0.575530062145184,0.56374655894573,0.552211082237705
-890,Cane,12m,0.55095086420277,0.580385339694432,0.566704824384357,0.532575789800807,0.624858437200585,0.531010343670801,0.546460849500502,0.531528415375445,0.586731110658947,0.576369616434736,0.575845661566441,0.603522488182606,0.553594279207094,0.603847381567964,0.576789847279879,0.587115103543789,0.576893348825286,0.564674070668252,0.554594383400316
-880,Cane,12m,0.552517045209599,0.582093936923889,0.567509161189934,0.532683292655269,0.62771669607127,0.530308771198257,0.546532514793056,0.533515061427612,0.590268877076036,0.572326821776387,0.577280766036788,0.599660478850121,0.552359609459564,0.602198403043565,0.575233135778021,0.587773998649916,0.576587216755043,0.564698112026017,0.556441144953502
-870,Cane,12m,0.551230322961771,0.581948788872831,0.568600936594792,0.532655105966346,0.629783069319677,0.527659430093536,0.545960758152958,0.535454670584323,0.59162714136902,0.573051224388172,0.578430930376034,0.598890471802227,0.55241520285265,0.599623006189453,0.574347208696717,0.58936483670618,0.578247529280076,0.564113118809384,0.556986480327535
-860,Cane,12m,0.550292519136159,0.58089940193834,0.569460019238133,0.532479960713665,0.630659391053662,0.527082299079834,0.546234302374876,0.537472330063785,0.591957523403999,0.572115075198102,0.58120897310365,0.598964129648358,0.551678596927076,0.59929187988037,0.57231995646101,0.591937862801758,0.581188411668588,0.562888262499619,0.557114130386406
-850,Cane,12m,0.551240010468598,0.579915803204003,0.570454900869332,0.533746700009301,0.631124482716041,0.524655600580376,0.545991559657248,0.540616059175679,0.592589292638574,0.568799285342726,0.580882622582139,0.598398977359901,0.551677416726338,0.597290001901049,0.570568379048049,0.591503399663238,0.583344222222529,0.562989341169205,0.557000029338204
-840,Cane,12m,0.551795203314331,0.579641412106201,0.573812844433471,0.535708730279947,0.632555003219109,0.522899114172583,0.545357579993008,0.543644550529554,0.593901917263027,0.567876081543433,0.581407945506474,0.59636037315337,0.55162233155109,0.596562375334542,0.569753231437563,0.59119795651701,0.584171424217484,0.562685872664167,0.556438957767376
-830,Cane,12m,0.551625534292975,0.578640837440156,0.574798425562689,0.536688571863005,0.633648717980574,0.522194782285189,0.545808934742687,0.546430202787527,0.594241323411884,0.567267116541017,0.582215799804861,0.595644693552841,0.550228903028241,0.594633917696267,0.569485811091093,0.590391022295683,0.584652411191187,0.563173434019174,0.557814494927452
-820,Cane,12m,0.551839297960003,0.579768746413206,0.578158502786713,0.538946737271343,0.633224253057186,0.520001679511814,0.543437406039978,0.54802242760639,0.595384253742387,0.567342751967675,0.581573244069395,0.594782834962657,0.550234358133397,0.594547458123116,0.569902235938092,0.591855418405621,0.586088027988588,0.562631554374837,0.559282348281717
-810,Cane,12m,0.550793582750347,0.577925909835065,0.581715644562049,0.541831153411128,0.634058645320086,0.517199974157952,0.541700147698243,0.549607911357273,0.59765647262916,0.567630640078301,0.582739934085207,0.593530882272275,0.550287450810097,0.592861808664268,0.569239260269307,0.591206415275354,0.585647231556082,0.56327229509689,0.561699861471589
-800,Cane,12m,0.549048443281837,0.577322704167216,0.579837385103584,0.545933348387275,0.632882877778044,0.516391356654545,0.539271213819881,0.551191252994814,0.600536842484844,0.567177564176647,0.585351928548408,0.592922535394697,0.550522461473668,0.592096497781137,0.569481043225674,0.590370975776899,0.585474960464045,0.563794782326809,0.563690423394455
-790,Cane,12m,0.550173633106845,0.576875156223882,0.576856450481274,0.549465600917283,0.633202839584931,0.516149191302654,0.540286588208016,0.551989819363098,0.601951065559615,0.566580301201475,0.583374440732326,0.591096426590461,0.548477395792493,0.592258614313317,0.568972959842965,0.588095897360158,0.587139939106513,0.56480687824083,0.565552638795402
-780,Cane,12m,0.551217745652493,0.575643860529185,0.572117131259576,0.551113035794504,0.631808970887187,0.514584709746595,0.538288787403445,0.553170102741101,0.604020592968536,0.566045333092782,0.581621408708897,0.589061773778822,0.547680167319749,0.591352147567525,0.568077681133907,0.586171944557708,0.587327025888191,0.565508130468026,0.566288766667839
-770,Cane,12m,0.550648515803574,0.574841003312901,0.572965432915343,0.555164995010699,0.632229587850545,0.515846171344613,0.53823417415781,0.553894708074739,0.607349390608074,0.565899826715044,0.579453670414217,0.588825551862567,0.548828905641303,0.589624961875042,0.567587037950788,0.58454779512236,0.587723423266479,0.56621865660965,0.567481069599736
-760,Cane,12m,0.550097452633132,0.575606790295574,0.571212430379424,0.558362988750788,0.632912372470366,0.514852123023918,0.539331027074589,0.554102896944522,0.609660183145537,0.565017517764963,0.579671012973143,0.587666046824949,0.54958005403261,0.589363110182645,0.56620958974183,0.58128099670146,0.587447044614312,0.566350201101405,0.569434793193535
-750,Cane,12m,0.547408833569514,0.576614807148118,0.568966931805504,0.560388684600905,0.632684506659389,0.51475172026586,0.54063187298646,0.554262024548401,0.612259360585121,0.564416205393158,0.577065701861869,0.585996972484668,0.549470487107489,0.588660731191448,0.565930640802013,0.580416352116052,0.589721192376719,0.565673625781484,0.570677818118884
-740,Cane,12m,0.546273461022999,0.576930874247604,0.564313954370102,0.559925736887877,0.633093449940967,0.514712022831585,0.542048104765783,0.555307351163349,0.613128197915691,0.563796325854099,0.575382913405459,0.583801403241504,0.549665821006419,0.587668483048798,0.56585776596072,0.579114092146705,0.591721472850371,0.565919931489088,0.572907593193165
-730,Cane,12m,0.544831853316644,0.576385826619548,0.560937544978071,0.56505327373878,0.631778764231623,0.517452899346123,0.542370691743608,0.55629187764389,0.614253294926854,0.563730223825052,0.573304577408402,0.583182053725504,0.549807488315359,0.586701158649999,0.565109151931157,0.578687584259014,0.593329534264255,0.565231994243545,0.574955044811908
-720,Cane,12m,0.54502287372653,0.574886722114327,0.557284584318495,0.566024390364732,0.631021544293045,0.518413986009845,0.543788858169786,0.554538331954484,0.613104628722366,0.563691869965462,0.571319063858659,0.583034675058981,0.550321932595966,0.586468308429579,0.564466798114449,0.577018565335392,0.593554686460657,0.565610078879959,0.576564915017241
-710,Cane,12m,0.545668841460897,0.573796702600498,0.553814877934469,0.566280310672457,0.630308974371028,0.519548414819959,0.54631540883699,0.552817639188809,0.611113344252696,0.56263990146981,0.568954956283241,0.583208358965926,0.550327547000423,0.586203124138731,0.565962215018415,0.574394552815212,0.595980119421931,0.566269647621655,0.578351581187269
-700,Cane,12m,0.543435988558552,0.573528680734578,0.55153833505436,0.564168960994009,0.627107417665959,0.519390338163194,0.545588046029464,0.550166188375156,0.610325730310857,0.563120871147394,0.568601430169264,0.585164881642022,0.551831811042147,0.58692905330885,0.565857784089989,0.57502481667005,0.59690690678572,0.565786015177707,0.580846679981407
-690,Cane,12m,0.542491497906835,0.571609669142984,0.549341317991837,0.559165478591844,0.626118567294325,0.521081620269978,0.544966576010403,0.54729601412627,0.608762076734355,0.563117322575262,0.56706467393631,0.586514663100185,0.551362284090564,0.587005287596591,0.565977547819272,0.575864551670787,0.600943360078939,0.565363816857842,0.581571328259655
-680,Cane,12m,0.540502690049621,0.570390489869857,0.543305462028954,0.556836868266974,0.623932488165354,0.522130509170702,0.547475863076854,0.544863112238354,0.60849073342188,0.562324058241196,0.567561431948472,0.584285463658894,0.551568710469168,0.58754857260737,0.565599156291292,0.573142737701314,0.603104395244115,0.565006736851987,0.584984634053802
-670,Cane,12m,0.538863506711841,0.570434216928085,0.542474086403545,0.552429132329458,0.623442223725339,0.522470275495766,0.547489330795415,0.543203128841287,0.609377469669787,0.562986429652285,0.568471052540626,0.584645068560949,0.552475635235419,0.58861811757459,0.565074865418989,0.573411440588913,0.60517567792766,0.565062207848437,0.5879779761893
-660,Cane,12m,0.538554433984474,0.569150246993039,0.54074606861374,0.549872863986654,0.620075017022841,0.521095347476147,0.547869315428297,0.54379167657768,0.608627189564879,0.561912911632395,0.56917327511827,0.583593487505911,0.554030083959884,0.589818160876673,0.565150171952449,0.576650087047627,0.606017202275376,0.565204876698981,0.589693812361846
-650,Cane,12m,0.539485262270724,0.569973545220126,0.538388442601335,0.550002190077189,0.617555991102767,0.520444243612636,0.548333599758305,0.543658383780295,0.607145400305414,0.560432916764183,0.567567739941186,0.582315225785132,0.555625628626652,0.588668024095928,0.566065164264123,0.574122757484203,0.604537065054798,0.564444413136144,0.59110708841553
-640,Cane,12m,0.540184168443494,0.569803247974907,0.537997221870568,0.549860943873092,0.616372737294992,0.520414904589983,0.547893358855396,0.544293249761689,0.606551010970317,0.560335027258343,0.571926261496569,0.58207261407678,0.557275455168634,0.587210850221476,0.566267037637781,0.575656025921021,0.604149576739197,0.564869098944018,0.592611771700268
-630,Cane,12m,0.541660662225622,0.566888699884418,0.537498560568901,0.550109782684492,0.613479154778467,0.51999551850884,0.547655276850654,0.544215193890292,0.605499145741162,0.560640660916128,0.572370794671603,0.581565843162225,0.557893407278365,0.586659610029755,0.565889310547344,0.575160381666243,0.604967991752138,0.564965011071278,0.593453148856821
-620,Cane,12m,0.540794750677859,0.565275171944294,0.536500167084406,0.550194216435227,0.612202791560252,0.519803664742979,0.547823758684799,0.545212546437337,0.605648629318475,0.563313674952694,0.572259251957001,0.581862512584394,0.558289960442756,0.585658208133537,0.564752455540431,0.575265522142325,0.606484911156903,0.564470583264399,0.593174302932313
-610,Cane,12m,0.540076732300457,0.563874443236037,0.539977422457051,0.549391496515016,0.611880221472643,0.516141226887072,0.548264672100736,0.545284141957599,0.606166728965544,0.565787052504013,0.571197508192412,0.5812143340642,0.559374187569771,0.585320971355652,0.562949454545627,0.575399478068909,0.607741489340322,0.563743678427368,0.592403361632422
-600,Cane,12m,0.539650085087548,0.564065013399688,0.539020885060062,0.549001894538765,0.610268494066608,0.515707654224247,0.547645104344199,0.545766082992978,0.6066802702323,0.567968495361825,0.567949791218847,0.579303574729646,0.559637560139668,0.584330753865668,0.561141872840401,0.574660682972092,0.608506832030294,0.562594072394533,0.591522934670593
-590,Cane,12m,0.539503725660362,0.56299374341288,0.54318942542475,0.549608203745014,0.607842288014162,0.514513326001105,0.546555160179523,0.545845849931573,0.606294661424784,0.569504516031864,0.566517663948267,0.578511031814399,0.559665477855942,0.583774413982915,0.562883971352315,0.573885563822041,0.608617828212783,0.561618455837308,0.5919320834469
-580,Cane,12m,0.540060291298929,0.562011396128361,0.543845722454843,0.550149177971136,0.60765978409683,0.513886287187385,0.545224185362351,0.544781703630478,0.605639154405727,0.569779769942862,0.564403321525805,0.577762887165827,0.559771958821598,0.583111324200425,0.563554323225699,0.574941830156277,0.608004971958577,0.559941485544929,0.590482972426441
-570,Cane,12m,0.539586199237017,0.560690835812115,0.545883964475373,0.549388485111761,0.607614718668633,0.515243346421785,0.544180472379496,0.546989952989843,0.605032951576076,0.571668192989606,0.564059902634319,0.575986860614489,0.559020686982805,0.582713797056118,0.563817686649019,0.577622652015434,0.606171571844734,0.558190691989287,0.590202177212413
-560,Cane,12m,0.539552962239349,0.559868617376967,0.54872328906695,0.548769805904319,0.608539894814011,0.51533237908317,0.544234473200113,0.547035222460987,0.605790422212778,0.573995329067958,0.565901961311485,0.575965339517056,0.559178906943256,0.581048857245888,0.563010522515645,0.581007258062676,0.604905921867856,0.557599659275222,0.590721891778407
-550,Cane,12m,0.540013704020069,0.559401009705387,0.551170380956462,0.550012421401659,0.607497040826402,0.515661198760923,0.542741632859983,0.546402323919691,0.607062063706131,0.576744688876604,0.562778673716022,0.575894804226656,0.557639509638163,0.578519390563123,0.56133307250881,0.581542603748023,0.602908348007327,0.55740588064795,0.591358551357115
-540,Cane,12m,0.54016055752054,0.558922157932169,0.551816911408638,0.550489463564932,0.608341029197623,0.51544807275164,0.541631605694041,0.54662798663851,0.606483106503875,0.577649258260816,0.564958185690567,0.575721892177231,0.555773036979956,0.579032958156753,0.561775808594401,0.582034307025533,0.60167268465273,0.557490168814385,0.588985237320279
-530,Cane,12m,0.540747395025473,0.558456562438209,0.553182677004936,0.548941845634533,0.60687406231338,0.516414664088815,0.541780716819923,0.546227963594022,0.608055607751284,0.577707527221968,0.566564560047619,0.574806188683209,0.555170557711161,0.579951491121213,0.562662728575646,0.580867919091941,0.602004132964182,0.557585631743687,0.587418550617155
-520,Cane,12m,0.540926043291139,0.560225321324368,0.553562709510298,0.548865247811708,0.606491780373768,0.517268872328419,0.542428070935199,0.545575347614702,0.608589321702964,0.578259973515497,0.562624666037501,0.574070972564764,0.554148768613168,0.580196480669071,0.562867076834807,0.580829834184974,0.599723709644333,0.555974967526226,0.586023032871573
-510,Cane,12m,0.540851144187041,0.559560861821429,0.555030286152989,0.548337871511128,0.605998597428632,0.517842145657402,0.543032786103546,0.545449921839826,0.609957066450745,0.578571264155703,0.560838312781234,0.573552140956713,0.554648094350928,0.580165371188145,0.560517633964398,0.581902655757804,0.59782107154323,0.555061732015374,0.582666880956743
-500,Cane,12m,0.540919417586126,0.560655771955225,0.554761145648399,0.54752719120823,0.608620820696814,0.518576147457278,0.545856618982671,0.545738432828392,0.609803300027124,0.57883929195411,0.558216710731597,0.57512270316618,0.553342995026064,0.580157560924706,0.558191216913338,0.581349384736486,0.596620649903478,0.553646055975792,0.581760019606094
-490,Cane,12m,0.540768042253788,0.560547951725851,0.55328515998078,0.547888249737172,0.607786628552253,0.5198696265414,0.548478728290532,0.546183542759766,0.609518049214838,0.57923703638466,0.557862073761887,0.57624798887559,0.552199199511186,0.578758059259366,0.556130660270475,0.581614293485787,0.594276595342655,0.555170188579552,0.579828602717705
-480,Cane,12m,0.540660921357029,0.560413427653918,0.553316703260919,0.547213609782315,0.608733779429095,0.520796633173302,0.547351228167674,0.544580293452615,0.607027585046081,0.579192531826809,0.557672531075062,0.576249198970885,0.552098887569003,0.578382147176868,0.55508381612233,0.58042528647233,0.595516177935765,0.553282916024316,0.576771180565485
-470,Cane,12m,0.541751660191113,0.562085770839378,0.551249840616917,0.547803052543376,0.610706013635483,0.521957518637922,0.545721282694186,0.544463477072349,0.606438380199275,0.579043725418776,0.557883307047663,0.575666037945761,0.550459286757994,0.579977420931358,0.553602909205472,0.579393560644489,0.598530354987868,0.551359276200156,0.575948742050874
-460,Cane,12m,0.543153638200442,0.56114360773798,0.550633465647082,0.54552262713167,0.612517176821629,0.522989354582483,0.544397908119112,0.543222463542905,0.605145054855043,0.580180790610181,0.557933417841644,0.57716412092368,0.548899432165183,0.580715594413475,0.552299496144658,0.579370509978788,0.597125499801875,0.552391897212934,0.57568571707972
-450,Cane,12m,0.544818825854259,0.559408696911373,0.548658585842799,0.547105162141198,0.612307492362373,0.523460474358477,0.547713723296993,0.541061904138728,0.603401952510882,0.578712024646032,0.556958124116851,0.577864665417877,0.547722355571428,0.581006689783663,0.549916035498189,0.577107744241123,0.598214065110163,0.552566653769431,0.573445745177941
-440,Cane,12m,0.546314005834087,0.559894748260178,0.548184912912061,0.5473615832605,0.611919265317287,0.525319450955868,0.549840027151779,0.540588603018655,0.599994563041357,0.57543004384144,0.556963920037627,0.579643039574754,0.546683997656109,0.580622816778077,0.548969409735769,0.575033264207959,0.599323686024031,0.552429877521033,0.573020642940339
-430,Cane,12m,0.546551590507643,0.561520952564238,0.545254510558808,0.547388805178679,0.610489492178027,0.529536884864118,0.549281709800805,0.539924439671166,0.594837524008851,0.576273007598829,0.557695668101806,0.580903121486663,0.544771879100948,0.579447775615536,0.54814338133969,0.573015400106413,0.600666036443009,0.551144089851397,0.572327975850121
-420,Cane,12m,0.547174960739574,0.562398738884876,0.544649932015672,0.547162186067767,0.610570473439615,0.530551788638172,0.551616288162991,0.537368190989225,0.592889873858734,0.576752136359368,0.559861423256534,0.581785599587417,0.544242502119082,0.579738261790695,0.545121172095245,0.569692953194203,0.602427967215035,0.550590325710127,0.570213916528787
-410,Cane,12m,0.547110992931846,0.563536932200616,0.5423256738503,0.546854495510208,0.612553263482427,0.531086701352497,0.551282318712741,0.535319047535172,0.587869130760562,0.576670391595612,0.56235414793328,0.581948682822312,0.545510048878267,0.580167329172043,0.544616110104877,0.570736491259753,0.604441745208702,0.550484168473914,0.567850242938488
-400,Cane,12m,0.548607176170678,0.565005729529162,0.540198953341388,0.548187106987572,0.611062579183199,0.530521355412628,0.549618267345354,0.533970621933484,0.586037917504048,0.575123782212143,0.564986958864057,0.583255068957274,0.544311219355862,0.581561528216696,0.543178246459203,0.571482706823731,0.601661277791799,0.551319009322724,0.568533725428416
-390,Cane,12m,0.549701210145552,0.565755065052108,0.540372513642462,0.549163076168985,0.610238156362535,0.530086677326895,0.548617283620616,0.533225770063906,0.581707472493924,0.572739047120434,0.56624542850716,0.583510984717539,0.544988226744874,0.581633767616169,0.544018769961757,0.57119805273768,0.601582487230818,0.551673237809992,0.570970894876294
-380,Cane,12m,0.55020523270195,0.567093038392373,0.540269348013113,0.549169659081027,0.609731727945299,0.532070198879473,0.553050496076113,0.531568973297248,0.577104868305208,0.573680470346107,0.567041173734454,0.583011356998197,0.544839676967252,0.581632615664265,0.544303951550152,0.570240697467253,0.600811411602789,0.552184311415761,0.571553352069127
-370,Cane,12m,0.550698512754002,0.569896003253793,0.540609746650671,0.549873088819614,0.610124310459833,0.534286742263538,0.554098456680348,0.530937279097375,0.574396424815472,0.571679893708461,0.565550225882577,0.582788943779565,0.543658601722827,0.582478911000732,0.542666301009131,0.567819404227533,0.598119045543665,0.551555433354241,0.571857027301602
-360,Cane,12m,0.552370443026264,0.570464100155551,0.54144022691758,0.552063387641923,0.609228785283563,0.535333196690605,0.551248286200682,0.531455166962015,0.570329305348608,0.570011071036691,0.56312631284002,0.583352477699778,0.544263891112364,0.583532200857911,0.540786076124265,0.567578532959814,0.594911371596261,0.552238393252295,0.570361595666919
-350,Cane,12m,0.553769247243661,0.571719790466419,0.543369640836415,0.554144891820773,0.608820117757468,0.537260350362627,0.551887514346949,0.5318409652488,0.569933827652207,0.568578378354394,0.562534643384757,0.582275691790102,0.545119084353607,0.584570118299293,0.539339641343465,0.568846415951746,0.596761124973612,0.552996611125909,0.570283566929013
-340,Cane,12m,0.554872535237992,0.57167567448369,0.546540735909635,0.553974734065374,0.608711497851141,0.537877256796249,0.555070524712706,0.532422610584608,0.568241065874921,0.567777721197311,0.559816605741331,0.582232376059359,0.54545150778226,0.583488772953517,0.538450289177273,0.567604014402463,0.594719727742201,0.550473350242524,0.568798736903375
-330,Cane,12m,0.556066069066506,0.571711385494509,0.547917351766725,0.553998636289135,0.608048658971178,0.53858681015578,0.557476624582812,0.533103351563499,0.567792341369955,0.5680564986609,0.556618312447514,0.583339860029192,0.546755667211671,0.582493715799617,0.53842987844682,0.567690584494298,0.593757701487703,0.549241233558901,0.567615734541331
-320,Cane,12m,0.555637965585857,0.572404877259708,0.548822413142307,0.55401224356484,0.609061989492049,0.540486898009639,0.558768094225712,0.53315283027916,0.565749420190892,0.569404636257651,0.55368907134279,0.583198805253915,0.547750221324094,0.584017602870185,0.538893267436008,0.566236144475202,0.593765407645763,0.549389126233818,0.566966138737016
-310,Cane,12m,0.5540274950571,0.572033840636242,0.551052283663712,0.556238193900396,0.609128359265634,0.541162355769628,0.55955219350986,0.532694263170344,0.564826004446562,0.569107274590278,0.550186905273502,0.581270710409367,0.54722310239965,0.584145960577744,0.538703826094803,0.563972550660883,0.592101199588033,0.549954929880394,0.565627595436965
-300,Cane,12m,0.552899487220776,0.570361172884173,0.554291081737536,0.559956905495947,0.609659897213352,0.540674920977007,0.565566881412405,0.531768202579734,0.563759507335905,0.571187505432654,0.548353132420939,0.581032615757173,0.549491833413375,0.583590853256911,0.537929233919358,0.561713158544361,0.592349900554169,0.550312214462107,0.564931624782437
-290,Cane,12m,0.55276227997472,0.570950041847697,0.555196594458386,0.560348068383089,0.611130380765706,0.53883250455513,0.569755978318479,0.532084509603829,0.56320849375628,0.570196051604753,0.545221927930092,0.581609225758195,0.549983654333507,0.584816270060843,0.536263568771357,0.558782947615106,0.58874047026165,0.548906627541528,0.564194703526527
-280,Cane,12m,0.551681779571767,0.569868248602181,0.558230604830438,0.559699601863592,0.613335554005691,0.539867355507497,0.571297685440476,0.532163779092702,0.563990455158882,0.573335021112518,0.545330011879172,0.580667347709969,0.550395952561636,0.583651361021503,0.534894087049854,0.555291581295196,0.587611090182493,0.548643212170681,0.564087197634159
-270,Cane,12m,0.551659228583066,0.569207453607358,0.560216369207645,0.559797912442866,0.612897190421738,0.538955217104291,0.571573249081536,0.533892804185258,0.564334089264765,0.574744594404127,0.548411137043183,0.58077174990123,0.549069745408528,0.584279352034438,0.533667941888331,0.551925773177705,0.586617595475026,0.549649471181247,0.564671374562354
-260,Cane,12m,0.552225108005369,0.569872976771217,0.565067643939411,0.561047218631517,0.612375283052315,0.537043682998103,0.572560468608103,0.535641135135693,0.562146288828597,0.57582035782827,0.547981259156785,0.579888312101879,0.547105358586422,0.585852857029595,0.532816449771229,0.551933241907747,0.582431917771601,0.549540306022726,0.565021094504044
-250,Cane,12m,0.551344881896,0.570212133655338,0.567791029141809,0.561878193853412,0.611815117568341,0.534971624286882,0.573491144902671,0.53619879677148,0.560964494596543,0.574441830282137,0.547898514682742,0.580397792135748,0.545259033767248,0.585956568729792,0.532438092901356,0.551642267671691,0.58131060629916,0.549416480527277,0.565188800377245
-240,Cane,12m,0.551969724413833,0.570413098209102,0.566620701542931,0.560871343162227,0.611225403335524,0.535080907931078,0.574165171362985,0.536059310847484,0.561083173500848,0.575941090699659,0.547043204907156,0.580028955571039,0.546878439774448,0.583909637662317,0.532269307646563,0.552654851846782,0.578753504507732,0.548433295486055,0.566768435311721
-230,Cane,12m,0.552110549024819,0.571821600549545,0.569121928307402,0.559898737921222,0.613113109940018,0.535723120476427,0.573589236767134,0.536425390639055,0.561260284673894,0.577613928400869,0.547852082851787,0.578899650546785,0.545791185461791,0.583043706220369,0.532529010579203,0.552854961745115,0.575413759936075,0.546825559143766,0.566721480430772
-220,Cane,12m,0.552841679398916,0.57172473373057,0.569315205546746,0.560915838871683,0.611501091275623,0.535615497946382,0.572377871818043,0.537106371030965,0.562955087128619,0.578557717848536,0.547809725309982,0.57793238189464,0.547480317648667,0.580496531933896,0.532756285803588,0.554498196606203,0.57571452006002,0.545972732958916,0.568149503570653
-210,Cane,12m,0.554161691332724,0.571621684145749,0.568960469056315,0.561852369703362,0.613920631248562,0.536921464808944,0.570423229490019,0.538366858033401,0.563129465771904,0.578690027085332,0.549013910236486,0.576003853738458,0.545951812857532,0.579285634171043,0.534596323441925,0.552549230682342,0.574291167892713,0.545850928471165,0.568089248007126
-200,Cane,12m,0.553680662632243,0.573710307566676,0.569641218452953,0.562849201412497,0.613887510831222,0.535689738459256,0.569099606408504,0.538624862683205,0.564148576937496,0.578842895028717,0.547614546146783,0.574449888028221,0.545341899325887,0.577536760019367,0.535817879575811,0.552314457147925,0.57090046235065,0.545504385621028,0.56862368325401
-190,Cane,12m,0.554119914769106,0.574266729920936,0.570119471598865,0.563678658520497,0.613199470592012,0.534517541428116,0.565945136927002,0.53883244493096,0.563800439831469,0.58021346193726,0.549229183921783,0.574115266787397,0.544450512481409,0.576640936014599,0.537141302872947,0.550306409993693,0.570653770700775,0.544859640947481,0.568628159061261
-180,Cane,12m,0.555064946972751,0.573542869939193,0.569757499342498,0.565586359719463,0.613800306747915,0.531995917685256,0.563593826131511,0.539668533013421,0.565693056974046,0.580634088750109,0.548573286871235,0.573767782039688,0.544481805870402,0.575614165674899,0.538829822368894,0.552134530781209,0.571201561649401,0.544180074818528,0.570855796833134
-170,Cane,12m,0.555926282409126,0.575829592414478,0.57031716915612,0.566794152094365,0.614365496912653,0.532995588341296,0.560973898193401,0.540348727030783,0.563350369990053,0.580853698934437,0.547959273664885,0.572635585736843,0.544569892075488,0.573826625154627,0.540560682250379,0.554782389036566,0.570958763934918,0.544190780509305,0.572638706501484
-160,Cane,12m,0.555135444005196,0.577991935444663,0.570542105603633,0.568596704874196,0.61287482079126,0.53193180847699,0.55963706069109,0.541594888476497,0.56303315461792,0.58081916411869,0.55102555027456,0.572603895633711,0.544566242290578,0.573455190725438,0.542485696804272,0.557153515898436,0.569660900359428,0.544881279718577,0.57410383236833
-150,Cane,12m,0.555248685572093,0.579263087303519,0.571204818459738,0.570367206484862,0.610818606577849,0.527794163219166,0.558843618296106,0.541401448676645,0.562484216278641,0.581237635536771,0.552478644901438,0.57065027924494,0.544847945335545,0.573034683963255,0.544153879816653,0.55818551824832,0.569672365110318,0.544799106855618,0.576549654926525
-140,Cane,12m,0.554803769860306,0.577450433028895,0.570386058592957,0.573670849005414,0.610020764630648,0.526276872035651,0.556102662290747,0.54334262384061,0.563408304846932,0.579140252342302,0.555428522349719,0.568113899547916,0.544699599625521,0.570631766509208,0.546665337818678,0.556937135567935,0.568372894131069,0.543689046046019,0.576600589934591
-130,Cane,12m,0.556014922717156,0.576152092464585,0.570548204558288,0.577269645294267,0.609769198344278,0.523547349582516,0.55600538907261,0.543469433409721,0.563727233325105,0.577479379066082,0.558828193197638,0.567667924384775,0.545757103410571,0.57124079869569,0.547920433395568,0.556785341736928,0.568714600449264,0.542934617770956,0.576716920566716
-120,Cane,12m,0.557048768509901,0.578635382759422,0.570555325829131,0.580045454854755,0.608781455821633,0.523519266037875,0.553961872826135,0.544120087097881,0.563728348097679,0.575784092849249,0.560537358095943,0.56805005361641,0.546103067965262,0.570884222029483,0.550576565684549,0.557985082165539,0.567475742278995,0.543790467534142,0.577132182265728
-110,Cane,12m,0.557351836839376,0.577355224280372,0.56943023753023,0.581537958598316,0.608217703129716,0.521759679371609,0.551887307077026,0.543856840697074,0.562778158442191,0.573415453655691,0.563994154458117,0.566909987760695,0.547842889889345,0.571069993126766,0.55062094049957,0.55940360614851,0.565329733377585,0.544525876337171,0.579105825111454
-100,Cane,12m,0.559139146409341,0.575753734926508,0.569598163629191,0.582194752121698,0.608076640786511,0.522165133108329,0.550909199531146,0.542738191324052,0.56192819609257,0.570558729686222,0.565812040551588,0.567176142233555,0.547828838164019,0.570229939137945,0.551436994305788,0.560760730746704,0.566635730573971,0.543717193971145,0.580938736590704
-90,Cane,12m,0.559885874789206,0.573752604890676,0.569711236232966,0.584057671973218,0.608537084295812,0.52296796947743,0.550171277229861,0.542785020838232,0.562034495128629,0.567739004582238,0.565490426144841,0.566191590828882,0.548905837380987,0.570780918231238,0.554054944568704,0.561967206963706,0.567586348879567,0.54373886974323,0.58076545376093
-80,Cane,12m,0.558693549902509,0.57563770030914,0.571553233093661,0.583962900264442,0.608337334365204,0.522693743885559,0.549577252433566,0.541859248005085,0.56153836991553,0.568242115289778,0.566926082003281,0.564622328731998,0.549362473295002,0.569320538786152,0.555364902195205,0.563209077376106,0.565114155199688,0.544209582772163,0.581747752003348
-70,Cane,12m,0.557870671294164,0.574215660072787,0.571752698403514,0.584238071699975,0.609608691510078,0.520642796736574,0.549460840003418,0.540978592070605,0.562531817373832,0.566789049128655,0.57031567808376,0.563801715028859,0.54842069148861,0.569137056662373,0.557851141195117,0.563736766152368,0.563281950319785,0.545795120299187,0.579817547709348
-60,Cane,12m,0.557787938211744,0.572503895192553,0.570978749802359,0.582654996133682,0.609891066463377,0.522303576688621,0.550786510764147,0.539674425053552,0.561056832472161,0.563759882001753,0.571254913344602,0.561553918233595,0.550024065267481,0.568771753857729,0.558907881627247,0.567491406492735,0.563264503047059,0.54731252309252,0.581486449050647
-50,Cane,12m,0.557531994005955,0.571188561036993,0.573025820037418,0.5808576491914,0.608410332180045,0.521689625167395,0.552706906118673,0.539805275267139,0.559597095812747,0.562482377867604,0.571995067190183,0.5607080291496,0.551445179642592,0.569328863004459,0.559325817593092,0.566073721869519,0.561657597324494,0.547624155389734,0.583027948257589
-40,Cane,12m,0.557448788749981,0.570545617471939,0.573520988103414,0.578825086047647,0.607868080854025,0.52309122847748,0.554354760090597,0.540096566445412,0.55889829570612,0.561661563214246,0.575146694465983,0.560195802913435,0.552733410859714,0.57027748371589,0.559722667707829,0.566581178656732,0.56155797947599,0.546609882434601,0.58015496661469
-30,Cane,12m,0.55622755670258,0.570975055548413,0.572981900668444,0.579810814144169,0.607905784348239,0.526379558821725,0.554424606760501,0.540750935094732,0.558050750733452,0.559479227185532,0.575583057855237,0.559187367152662,0.552610089335465,0.571375817353137,0.562551007816566,0.570425577918823,0.561371940177013,0.546402570667149,0.580341872208348
-20,Cane,12m,0.557134145925452,0.569807927486354,0.577141073338054,0.58154696908691,0.608485611797981,0.527812735963112,0.555215935860706,0.54046330607372,0.558954601119455,0.560188804648166,0.578452844546039,0.557984049651932,0.55353374870756,0.572567211332076,0.560611306607756,0.574538207179451,0.559966368769523,0.546500345657899,0.579904301915871
-10,Cane,12m,0.556807329121042,0.566881997333996,0.577448998693437,0.584971591790001,0.607863824338304,0.52677540757191,0.556381447859933,0.540544128510029,0.559565984605129,0.55737027779306,0.578558071136115,0.55665602289976,0.554789654692489,0.5732903577355,0.561173065367337,0.575298523518118,0.559540262838346,0.546454622697391,0.577684503889645
0,Cane,12m,0.556426563400075,0.566602372848484,0.579148954126839,0.586739639988478,0.607020157704996,0.529556147443681,0.557498756493071,0.541222432711281,0.558076479111881,0.556673416049763,0.578556815754204,0.555981466816312,0.557158289928618,0.573682452892263,0.561975830688205,0.579011727499913,0.558979987056366,0.546394576000706,0.575814841673504
10,Cane,12m,0.555997161076655,0.565494695876066,0.579393498596648,0.589297008056377,0.606839593856329,0.53206719353795,0.557667226458542,0.542325600785931,0.557085423548255,0.557690226796446,0.578497830306459,0.553531900159801,0.557874739387737,0.575188565679788,0.56019481751973,0.584382366250211,0.556731873496059,0.546613488206876,0.574745667510106
20,Cane,12m,0.555802477982731,0.563411045092961,0.578184111503722,0.591805787263809,0.605290155336704,0.532714181450546,0.556171327628507,0.543631930054766,0.556529658344029,0.557916833127113,0.574349445393325,0.552298279863148,0.56247158905967,0.576627588736323,0.560310714156999,0.587952511237896,0.556501802146393,0.546346829898402,0.573992512306447
30,Cane,12m,0.555452684072061,0.562558470585098,0.579366221206121,0.594477761153436,0.605566334238124,0.535613026091913,0.553353250929697,0.543977985196278,0.555537333795154,0.558866327901039,0.571494784809077,0.551364529859484,0.565069676666492,0.577624611368211,0.561327203200675,0.591304111067754,0.554555373369373,0.54659178112455,0.571305117026555
40,Cane,12m,0.555260749767178,0.560569175649392,0.577966897885942,0.595944644440771,0.604012938827549,0.537514845402773,0.550204777465952,0.544179754587324,0.555070586434599,0.560305715648803,0.569233471196172,0.550307267172349,0.567775787671805,0.576838195301883,0.561844999742648,0.592776755606937,0.552172513748749,0.546568919636759,0.569443937532641
50,Cane,12m,0.554927096459507,0.557592272126364,0.580382700569761,0.598004333774233,0.604149337225646,0.539804443117897,0.546559011419627,0.543732292655573,0.554229355234534,0.559399594931329,0.567818307608542,0.549506005293074,0.568316997351496,0.577326216860427,0.559964193422351,0.592399460448856,0.550175057913006,0.547027882573999,0.568195711786183
60,Cane,12m,0.555184278300148,0.555441220804131,0.579970565511112,0.599686789930526,0.602301641233613,0.542800866778042,0.544687524866938,0.544909794351492,0.552746852075574,0.558406140941182,0.565641266180321,0.54809762169463,0.572001755026422,0.577466041523558,0.560302018343212,0.591496716425081,0.548650195685204,0.547576849471996,0.565701286610499
70,Cane,12m,0.553980214158429,0.553767244183956,0.579357038909402,0.600221874413048,0.600160546461058,0.545259402633584,0.540965406665488,0.545535968451026,0.550879976687122,0.561517756148182,0.566539161004256,0.5477328149342,0.575251378523601,0.576318508547345,0.562677845434106,0.591144015923943,0.55069984485517,0.547151673889721,0.564858886022272
80,Cane,12m,0.554339673366732,0.553339668426793,0.575678233447006,0.600014768111201,0.598857408684842,0.547386928892863,0.538090558162492,0.545630988390607,0.548378987766304,0.563466552812195,0.565268980485025,0.547642808376058,0.577190718869033,0.577003078093104,0.56256431707641,0.592717204435236,0.551825524439067,0.548103622054806,0.563460642042675
90,Cane,12m,0.554663773314502,0.553175345169875,0.574628540393795,0.599099231808618,0.596694012166363,0.547935182422487,0.536712984520902,0.546092101768416,0.5484986566799,0.564544087082633,0.56472472042901,0.547369894661715,0.581171746339499,0.576822910134425,0.562659441828543,0.593115659644775,0.549827355601359,0.548674869098288,0.562406549080949
100,Cane,12m,0.554498709256936,0.55354627092736,0.574167870238193,0.597656292035425,0.594149314332535,0.548390395388924,0.535033936734615,0.54821604925217,0.546162650645094,0.565740996018968,0.562462483867384,0.54714439237423,0.580108581266129,0.575699434544312,0.562388751976679,0.594558988872705,0.549000321044417,0.546997975879652,0.561473951963206
110,Cane,12m,0.554248324634857,0.551988526674153,0.57528775898857,0.597366345189947,0.592713685130292,0.547076791211974,0.533176703504482,0.550811274202764,0.544550968826587,0.567263336560635,0.560862539969508,0.546677966001515,0.580467157275495,0.57590188200354,0.563172997357003,0.595937037029724,0.547925702719612,0.547996321967294,0.560117733179549
120,Cane,12m,0.553692312918539,0.551443961345695,0.572519822202905,0.595062843861921,0.592187960850756,0.54459088967932,0.532781754873756,0.552666054114345,0.543144094318003,0.567377405024483,0.558580866382537,0.547871904686021,0.579971013934203,0.575775095008115,0.564736328243829,0.59700443756443,0.547102600457445,0.547473448556869,0.560158995900327
130,Cane,12m,0.552825978250802,0.552601430732885,0.57118230921821,0.59532595234416,0.592698921537451,0.545956854606158,0.531127370198697,0.553994152825822,0.541238135115215,0.566945498241251,0.555869135483803,0.549135493732992,0.580591996947698,0.575167225860518,0.566915368270906,0.594216824697026,0.543765151970273,0.547379371979511,0.558443476374738
140,Cane,12m,0.552617184949896,0.553428186648054,0.568005901785586,0.59673363049505,0.592011471455597,0.548601207715057,0.531818630633331,0.554881528775614,0.540810396542057,0.566078207573855,0.554393827951952,0.549708814807115,0.580678062569021,0.574844460293246,0.568793641425857,0.59196756989099,0.543897831772593,0.546770760067746,0.558218349534583
150,Cane,12m,0.552026670768958,0.555089593293702,0.565814330441416,0.595920793476635,0.591697776555443,0.551745136885013,0.531801281149973,0.555051380685144,0.539990075128462,0.564539562669661,0.552417376637787,0.55008382324313,0.579056100261958,0.57306770967728,0.571023097752531,0.59209028635223,0.54232822147445,0.54661550838405,0.55670206385061
160,Cane,12m,0.554079458273469,0.556397695930578,0.564825049315358,0.594456640802538,0.591816370128972,0.551620283939493,0.534670751044084,0.554349357729442,0.537251311541797,0.562930799299456,0.554291733797106,0.551097278431136,0.577697364434568,0.572123943923033,0.572559820001012,0.591935619935641,0.542818658613616,0.545989982739677,0.554984243406372
170,Cane,12m,0.554471939417873,0.556958857200346,0.563989530012847,0.594631764905776,0.591693347409657,0.549562266993486,0.537524825816536,0.553406003439824,0.536968236898817,0.563557318087921,0.556602059800663,0.552266276387786,0.576265829643608,0.57135600978613,0.57042192399291,0.590630784868591,0.543791515754577,0.545132476239358,0.552551997436661
180,Cane,12m,0.552994353035176,0.555858652527849,0.56242135050457,0.592765683189628,0.592806773555215,0.548113703187176,0.54022916656166,0.55356428532163,0.535274837070448,0.562786174542706,0.558128544982586,0.551968156484974,0.575664117761597,0.569684074134209,0.569730759888304,0.589173785660012,0.54479441323105,0.544101688016355,0.549884254806913
190,Cane,12m,0.551914709834168,0.558255288929966,0.561515437698121,0.589330852953067,0.594182666381122,0.548554058083737,0.545541612788844,0.556222059338214,0.534493429852064,0.563042111335425,0.558614296699283,0.552987091895017,0.572437471271345,0.569130829228208,0.569357473236602,0.587363048465074,0.545306899836812,0.542560634289723,0.547855556313699
200,Cane,12m,0.552246808321089,0.557478390046087,0.559427511580881,0.586754017475202,0.595274053812908,0.548416869246968,0.54684331443079,0.558843342912921,0.534075534068992,0.560062805607802,0.558824022304552,0.554102337607401,0.572326633290544,0.567987950990948,0.569529057537463,0.586247308317605,0.545684387604153,0.541903159288967,0.54719949123243
210,Cane,12m,0.550980551137912,0.559683417616664,0.557930470689441,0.586048748478768,0.594833864217608,0.548238097521487,0.547284244034858,0.558638930125571,0.534451462790699,0.560359295542631,0.560523412572936,0.553811633554568,0.57116420885085,0.566372009694103,0.568313471459843,0.586243879876638,0.546254324433242,0.542169987129241,0.547605556799222
220,Cane,12m,0.549764592226803,0.560960532128103,0.555554151951151,0.587671148920747,0.593567888499842,0.550079187677481,0.549187772937586,0.559569217656263,0.534584901986345,0.560581774929686,0.563506132350304,0.553305064188758,0.570184043845452,0.564637228102813,0.567328654077677,0.584027307610887,0.545999953405067,0.542247900699536,0.549389178891393
230,Cane,12m,0.548674058916572,0.561632465229891,0.554269465500331,0.58743183056406,0.593198641518197,0.5495983200498,0.548804516365145,0.560502434272856,0.53444369538823,0.561269384425035,0.560826881188464,0.553250491654386,0.569719045382005,0.563189726396616,0.566525355372385,0.58183666327343,0.546244245521508,0.543096389364081,0.550301991622467
240,Cane,12m,0.546755008926113,0.562196562032036,0.554065432275181,0.58385490834596,0.594099550459978,0.551654873849647,0.548786094250647,0.560564497763889,0.537652108870163,0.560359479916847,0.562436352555195,0.55337770163656,0.567817393514263,0.561881341018304,0.565890254781552,0.57818815325005,0.546829615340132,0.543741343962143,0.551449064880434
250,Cane,12m,0.545944577161114,0.562014719712542,0.553359493188568,0.583794540062011,0.593311997814711,0.551447495266494,0.549383462286115,0.560283744835138,0.538854286173697,0.562141051761049,0.564246787420909,0.553961267731419,0.566597194881327,0.560740186901392,0.565426398791313,0.578107534466986,0.547471735883588,0.543779060864984,0.552106306892982
260,Cane,12m,0.544625716990083,0.564361563087164,0.550509410163273,0.583702432641398,0.594395818984027,0.552266219874104,0.550767427470615,0.559577292689627,0.540043591743528,0.564209200093027,0.565470613309626,0.554888631076618,0.566517724655002,0.560464243441127,0.563576340212635,0.578470191654147,0.548656230755685,0.544805649099589,0.552434024075684
270,Cane,12m,0.543865787374166,0.565408687192584,0.549452653317952,0.581851259340021,0.594160486898981,0.555277210606632,0.549237835594661,0.559127444885319,0.542061321476892,0.56467547331772,0.565693233261616,0.555964957438446,0.566230233630463,0.560163057741466,0.563271798558876,0.576996772369113,0.548582285216461,0.546720950638195,0.556561577201699
280,Cane,12m,0.542468346461184,0.565948050195844,0.548939848542471,0.580472994281112,0.594258113760552,0.555388117008442,0.550328848813489,0.559409052483142,0.543589837923978,0.56431805422535,0.563239818502707,0.556736180633614,0.56577673637721,0.559817811515937,0.562404585446968,0.573445563135167,0.548788628786955,0.546602459010294,0.557955641444434
290,Cane,12m,0.541318573845235,0.565691429178324,0.548255286189353,0.581292568902484,0.595278056402333,0.556085838702423,0.550604603781043,0.559663500837686,0.544985091149053,0.567860910853117,0.561661823297467,0.557059958902377,0.56613251163374,0.560187413164126,0.561071491710375,0.573353331288121,0.551229743180998,0.546386709448995,0.558980014550066
300,Cane,12m,0.540469127431412,0.566835151108015,0.544908985836218,0.581035671418945,0.596195066158156,0.555690631692135,0.549847713211138,0.56035847396903,0.545315870381086,0.569424222595292,0.56154824055777,0.557540889967578,0.56593164418005,0.560678773036153,0.560059596085819,0.571099262604045,0.553659118586697,0.545997810483122,0.557467505765096
310,Cane,12m,0.539704737145208,0.568200624485915,0.543477643628034,0.581393669595581,0.597045429004386,0.554744458922271,0.550875135409737,0.561579903678294,0.54672994755258,0.57194917822942,0.5601306686789,0.557785716787311,0.566894161963731,0.560556102117706,0.559688124907883,0.567914978609525,0.552516015302104,0.545983364937232,0.556370793956435
320,Cane,12m,0.539041726996161,0.570080740875798,0.54309997809339,0.581064901197737,0.596281265750846,0.553714420582188,0.553200798618674,0.561984936580397,0.550041112693321,0.573380951418427,0.559281938015987,0.558420173702261,0.565814436035888,0.561425924515886,0.559448901156731,0.564808335894506,0.554014773548122,0.54664698072162,0.557820508834634
330,Cane,12m,0.537806860702343,0.569833992925671,0.543905889539512,0.581017116283482,0.597591950331484,0.551949508267271,0.554237930003877,0.561427978822712,0.551181296089868,0.57440285511221,0.559391547757261,0.558153919473744,0.566589517323084,0.562514614711481,0.558704607887878,0.562484374874932,0.555216820241109,0.546387117544061,0.557626464736053
340,Cane,12m,0.537824784272575,0.57285645538892,0.544538093225148,0.580745003870327,0.598672507074243,0.552177456994891,0.555887435192488,0.56187710842188,0.551035496621647,0.577078183435825,0.560245995419231,0.559067480228429,0.56589756038726,0.56368267821567,0.558227107510751,0.559924221705403,0.554480619925227,0.54642139953828,0.558582329380685
350,Cane,12m,0.537267943895199,0.572960051254385,0.543967076774126,0.57986609672515,0.601005830197718,0.551757814836482,0.559048475328899,0.56144650995946,0.551114973777772,0.579853572261207,0.561568501859923,0.558409933931217,0.565610686196891,0.565347388741623,0.557241959575076,0.558384244948845,0.555399238615427,0.547078197296875,0.557916242507067
360,Cane,12m,0.538107071209219,0.574939846250964,0.543511194862655,0.579778336652933,0.601398214102125,0.548143255401232,0.55855074466546,0.562010607928534,0.551636988287579,0.580758735814397,0.563303949951998,0.55756075802215,0.566617006554523,0.565879828091813,0.557384199433086,0.556266673509063,0.556569250023415,0.547605783290727,0.55899112674881
370,Cane,12m,0.539223496312279,0.575780906578619,0.542328882838241,0.579220199724324,0.603355278394235,0.545536694802249,0.560257656968938,0.561829867700088,0.552366422534039,0.582753190960981,0.564324547450512,0.557125621498906,0.567046204779146,0.566173213402542,0.55606635152073,0.55541472947492,0.558945520852063,0.548091956313295,0.560008688414352
380,Cane,12m,0.53962060193168,0.577158613603849,0.540648346751113,0.578370309411667,0.604734868406038,0.545058129256458,0.563243506856471,0.559341745740629,0.55370814474941,0.583787878252831,0.566978140434543,0.557865285719822,0.56883950607401,0.566651162275013,0.556072990694885,0.555000602073198,0.561408664053468,0.548510357980427,0.559861591293871
390,Cane,12m,0.542540040684418,0.580095225259026,0.538845519083605,0.577982122744915,0.606110614631543,0.542879595841089,0.566697787790045,0.558616735520505,0.552781306059757,0.58534853531595,0.568051135805253,0.557668813742093,0.570205907799483,0.565677403900804,0.556058571652029,0.553619526244427,0.564424172608599,0.551121441231794,0.559855964661714
400,Cane,12m,0.542276085077703,0.579086482982972,0.540550659100466,0.578072937103146,0.606690098014967,0.540401342423254,0.568992045173167,0.557997987245283,0.551751703499592,0.587134772530862,0.570155458848856,0.559495588207269,0.5703894024793,0.565697852741557,0.555917465265858,0.554140759762228,0.56616808251437,0.553228925679954,0.559944941375317
410,Cane,12m,0.542683033378082,0.58136014761199,0.538485297300864,0.577873862307514,0.609273002455833,0.538576749725829,0.566585486916622,0.556532986101608,0.549519771692944,0.58725461229694,0.572362354618751,0.559684415531173,0.571223054953629,0.565301972897281,0.555778167681638,0.553645411903204,0.568948109375475,0.553407107008819,0.560965000887244
420,Cane,12m,0.544034331117535,0.583262443088251,0.537747353081598,0.577496531467494,0.610917441101942,0.535425463112204,0.572186404866,0.555133463938046,0.549942814575942,0.585887498486296,0.573395901630057,0.560811746649287,0.571541427085141,0.566154377741634,0.557392539880711,0.555592528301064,0.571786151362884,0.553521744848733,0.561382441786327
430,Cane,12m,0.543392117295871,0.584863452051756,0.537662204642062,0.577509345049306,0.611932033022995,0.532920313258411,0.572392395109075,0.554159569940311,0.55149741327735,0.586775190930591,0.57344307882702,0.561688043324701,0.571780107863036,0.566307301785725,0.559375158250363,0.556715641807195,0.574064380118416,0.554582259755504,0.560439966419096
440,Cane,12m,0.542462689285829,0.586059659826977,0.540196328668612,0.577286194874793,0.612193400004068,0.532746723916383,0.574644842852713,0.552788971184482,0.552400233343807,0.587177927206011,0.574535577236248,0.562350287149395,0.573819202306597,0.566181122183522,0.559127663478239,0.558557882011455,0.57773578100562,0.555918916438468,0.561078116355861
450,Cane,12m,0.542438074455055,0.585167336074339,0.54293492266895,0.578229160014053,0.613078905424323,0.531540087807491,0.57871458022432,0.552849392664689,0.554140609461454,0.586671570997758,0.573697622758537,0.562659295902851,0.576391572808378,0.56611514982861,0.561301473422018,0.561392341613841,0.579265729108473,0.557206464279804,0.562611802662264
460,Cane,12m,0.54300964283141,0.586015969164201,0.545231223777006,0.577281890059491,0.613164363885302,0.53239651461381,0.577529125653286,0.552692243308287,0.557801913618683,0.586153289660441,0.572567860630832,0.562887762228584,0.576451231503764,0.565879242889928,0.56122032910655,0.561377362201871,0.581059971628891,0.557563875788824,0.563342452801498
470,Cane,12m,0.542937475511861,0.586488371048204,0.546534763412916,0.577970901406232,0.614249326696842,0.530747106530921,0.576737563345288,0.552809618584221,0.560161927120021,0.589102996984752,0.569874682390924,0.562885226316965,0.576779813451939,0.565475616668385,0.565147754551535,0.565145331246165,0.581897412933688,0.557544930478603,0.562073109289705
480,Cane,12m,0.542999120074801,0.586127354080768,0.550973773494702,0.577451122410707,0.615206289973306,0.532249166878062,0.574400616743508,0.553097337075997,0.563499348554834,0.589262037444751,0.565000597908638,0.564063757429634,0.575246530376494,0.564508354941249,0.566893615475726,0.565573435934985,0.583090896836993,0.557726995908175,0.561180808456483
490,Cane,12m,0.542515391746967,0.585518242721241,0.554214375308395,0.575309481225538,0.615547333376018,0.531239822282706,0.575324654409958,0.553603309614428,0.568187211355966,0.589080689675917,0.561299843265082,0.565306290293742,0.574842641919535,0.564222146966309,0.56697893399021,0.568621096546956,0.584753484381202,0.557908201289364,0.559752510002006
500,Cane,12m,0.543037311134507,0.588856291673039,0.555294218250532,0.576719834184384,0.615743934763198,0.532153627870819,0.574665691888635,0.553861781517367,0.56999882855198,0.588266196022023,0.558114563769342,0.565480052665689,0.573746061489768,0.563972939141985,0.570828902387227,0.572190941906526,0.582310032062775,0.55799598207944,0.560133671865679
510,Cane,12m,0.541495886343362,0.589842651196148,0.55383070828305,0.57741465472144,0.615336668292201,0.532416767433426,0.574608771106249,0.554784410498161,0.573383268505149,0.589598228386433,0.555732694949216,0.565864501223316,0.571813260651166,0.564791774425106,0.572745047513548,0.572378153940588,0.582540303864162,0.557617894031443,0.559118456690465
520,Cane,12m,0.541641105433503,0.591585321332243,0.55391600341727,0.576886026587656,0.614490342874406,0.533688327072018,0.573085882959364,0.555401269756334,0.578249277501476,0.58978231451981,0.554478262839601,0.566690305967253,0.572135235260906,0.566012320349792,0.573778153657472,0.577628156498825,0.581233043015573,0.5575464749032,0.555672226821811
530,Cane,12m,0.541830225353717,0.592514452688007,0.55599171650726,0.577522316264533,0.615332514181613,0.53437616312794,0.571396141377991,0.555032516169362,0.582444344883623,0.589587097002867,0.55203337074829,0.565630119944058,0.571532706835115,0.56599548258494,0.574242082892492,0.577706505785311,0.581019255126623,0.556818406222155,0.555375759456415
540,Cane,12m,0.542423395911489,0.592662452853693,0.557496990135819,0.57919300363549,0.615500725481458,0.53567325828449,0.569357588109317,0.555257572573743,0.584055654871601,0.588541368320618,0.552001684159896,0.565022681600278,0.569827811175991,0.565318328415486,0.575062095596506,0.577584017929358,0.581544182949143,0.556071380613765,0.554839239934233
550,Cane,12m,0.541998810043613,0.592258455461355,0.55905939139523,0.581330166747541,0.612029343105719,0.53559531367285,0.568982224933509,0.555048341143435,0.584915749532086,0.587378661939286,0.552998896000979,0.562950318519291,0.567786042771346,0.566732255125065,0.576105047078248,0.577666368742487,0.578549618444866,0.555742025867941,0.555321970731918
560,Cane,12m,0.543839269106098,0.594847134087491,0.554761678027068,0.582603824282969,0.611476119633795,0.535726058968319,0.565174251069001,0.5547634612829,0.582710882776238,0.588429079323962,0.553961957618201,0.563056205736358,0.564412374019498,0.566212726841034,0.576442145702936,0.579886407974891,0.577832300942114,0.555197212481416,0.555869336683645
570,Cane,12m,0.543957717250977,0.59799024271576,0.557494125995583,0.583974799935201,0.609379466541986,0.537371007597461,0.563415245663503,0.554027805146087,0.582907186817706,0.590610742397423,0.552733280721309,0.563079493889173,0.56240655521244,0.567065402494982,0.576824577795771,0.581543891486603,0.576683699465983,0.554104080397933,0.555992505424218
580,Cane,12m,0.544947697701611,0.598165106802315,0.559261059490064,0.584379028582496,0.608462874972232,0.538395448734665,0.563665345722854,0.554069373263022,0.582554325133071,0.59143040894566,0.550999139160035,0.56218313713498,0.56100912428092,0.568962651154268,0.577505665315544,0.580379085612993,0.574239555222439,0.552370578447768,0.555880546739956
590,Cane,12m,0.544980358621625,0.597450655891778,0.558559723661636,0.585425353243796,0.606964373617004,0.538353703061965,0.561780341291454,0.55440118241697,0.582343281033912,0.5910631096388,0.551123920875404,0.562499023058419,0.558746492038499,0.570265517609614,0.578310211816768,0.581837135503118,0.569797000998187,0.551358529565274,0.555547398601194
600,Cane,12m,0.544508633834785,0.596723148463957,0.55911017152838,0.586771709218287,0.604549907502759,0.540056211789649,0.560834828583853,0.553114286892909,0.58255928365121,0.592214249812796,0.551361902292068,0.561564916290483,0.555608823614033,0.570075073786512,0.579085701683729,0.576435804816184,0.568370724881431,0.550631198399533,0.555371987379621
610,Cane,12m,0.544000461095293,0.595684267950548,0.560598246255468,0.586602555272047,0.602537474444662,0.541120447033262,0.55902221580086,0.551380327518936,0.583123082601041,0.593888018646861,0.551727087791777,0.561794367714427,0.550506473298304,0.570018695967327,0.57895681428007,0.573472699135133,0.567981726203661,0.550796784436791,0.555788837126178
620,Cane,12m,0.54469070567084,0.59482883558942,0.557169685523863,0.586305001606407,0.601411636258736,0.539797998503666,0.559317024410958,0.550128896516563,0.581693653510523,0.592612097610013,0.554336135459609,0.561747150773286,0.547216951266739,0.569459231967759,0.57816404626108,0.573675169302913,0.566398456417601,0.550143829477146,0.554966486050803
630,Cane,12m,0.54529810746298,0.594546395074632,0.559518322795759,0.586447444620777,0.59922123318605,0.539461767664462,0.558170449234121,0.549968211225149,0.586238570415006,0.59129612161652,0.553826176017348,0.560570180864837,0.543534300534323,0.570957217300884,0.579365106922112,0.573744107651239,0.563838553466557,0.549302789827774,0.554747717243417
640,Cane,12m,0.545095155272632,0.596302847798174,0.558967996114719,0.586788455283317,0.598386911263671,0.539671325624742,0.558263351957511,0.549924517571878,0.58675406277858,0.589691819223669,0.55497508683957,0.558914043007445,0.540751328019774,0.570422942045755,0.579841278701471,0.574921029848135,0.562138575001832,0.548269663776856,0.554648945284461
650,Cane,12m,0.544701981874839,0.59577375955982,0.557134583946186,0.584893681746732,0.5980147112531,0.539740495991493,0.559038332122789,0.549279779197222,0.584817985924632,0.58839073908867,0.557279631759023,0.558410833662824,0.537047275211781,0.571070828980999,0.579287057721139,0.575021687830306,0.560722331493956,0.548388427462876,0.554395158123797
660,Cane,12m,0.544430116598775,0.597071106732638,0.554792998983005,0.586249659030599,0.598102864905924,0.539929057773572,0.56022206476548,0.548779877138892,0.5866039383752,0.588017185222907,0.559510737686214,0.557556369116086,0.536079477879446,0.572044498740252,0.57870452342587,0.576440103978446,0.559432506639246,0.549020576982077,0.554919803329099
670,Cane,12m,0.544305367529467,0.595492498845203,0.551718543239148,0.584118487438911,0.598099150212024,0.539800787050429,0.561838313381469,0.548189409524349,0.587039341502845,0.588737223186516,0.559917413186691,0.557043213436359,0.537874561882606,0.573228624847789,0.579118996085108,0.577107349245817,0.559041181790292,0.549733865817981,0.555907271863316
680,Cane,12m,0.544250040413903,0.594255424676246,0.549172969736511,0.581175600499931,0.596045038472333,0.538605567851444,0.563435706392632,0.546724444666489,0.584763789691249,0.589779294750335,0.561116669853057,0.557292226645215,0.533102831143137,0.573801746776864,0.57988221480917,0.575817640825472,0.560648816900978,0.549210069451367,0.556738674651204
690,Cane,12m,0.544885020594031,0.593791254372306,0.547258874495348,0.58006722246179,0.594009024752862,0.539131387162324,0.563801951185524,0.546542425612423,0.584044377031033,0.590834274569939,0.561017246504433,0.557154320834082,0.533517037050318,0.574114448788468,0.580385181601987,0.577501406878508,0.56148848502786,0.550964820727376,0.557452522617865
700,Cane,12m,0.544842546301302,0.594778275596787,0.546999378871028,0.578768681161454,0.590476362384249,0.538516208997543,0.561998961811586,0.547651387559413,0.584924795602543,0.592273638183087,0.560894073106758,0.55657486577607,0.532049275139935,0.574417128188687,0.581240161289005,0.577009233583691,0.558634088798201,0.551818585012984,0.557194650726363
710,Cane,12m,0.545080928489136,0.595198918482194,0.544499647725807,0.577677347102274,0.588659738786293,0.539773550488615,0.563393997246846,0.545013265343591,0.585504403531103,0.592569610142764,0.560038705946171,0.556009993213679,0.530475849578874,0.574603896814259,0.582526283350878,0.578818729424647,0.556801053230341,0.550888419345517,0.55976782533293
720,Cane,12m,0.544975694210052,0.592644743383914,0.540867829166626,0.575269363907817,0.585673174239809,0.541084656003594,0.562531937319002,0.543175168785767,0.586970224659322,0.591109907505979,0.557950694621367,0.554388854506431,0.530250657013495,0.575117963635111,0.583237358675837,0.577537697707785,0.558446085168093,0.550136797955423,0.559422026480461
730,Cane,12m,0.544732743989612,0.591322709165077,0.536356614248647,0.5744815269716,0.584741017981729,0.542193279572377,0.561541793411739,0.543714128857478,0.587965857758979,0.590456266930116,0.558098735348147,0.554653559656515,0.530338410672689,0.575986052734662,0.583422412413781,0.577435988737004,0.560856803686223,0.549541728591339,0.560673985184061
740,Cane,12m,0.545213898723191,0.590133171710709,0.538376326555385,0.571796143099624,0.583889684497211,0.543011093695943,0.564068798458096,0.541923710402762,0.585603190969284,0.588718842536854,0.557668464819814,0.553316549384709,0.530364128454222,0.576944581369852,0.585630010496788,0.57650271876899,0.560111398722563,0.550286636260459,0.56086213026283
750,Cane,12m,0.545649334541189,0.590052593400547,0.536861304360488,0.567701353278775,0.583474819468211,0.54386573156646,0.565263732275598,0.542006941198002,0.583885838719378,0.588062471856707,0.556697166588239,0.553058213983821,0.531394528759364,0.578172092262413,0.589160386746371,0.578848528884867,0.560446786659257,0.549474930407966,0.559116617531365
760,Cane,12m,0.546680287009948,0.589623275710299,0.534372972159898,0.56634732339718,0.582995714306479,0.544357887525454,0.564775860187976,0.5422804946235,0.581842123996806,0.589491209450934,0.554042937703506,0.552198112573316,0.531982277622622,0.580565994465401,0.592334281663445,0.581251793615162,0.560644264469872,0.550797595228981,0.557716897314895
770,Cane,12m,0.547352890098673,0.588050428069213,0.533404762130838,0.564775933364036,0.582535236100764,0.546565497456433,0.565863512684637,0.543489546141516,0.578740208349006,0.59175647025876,0.551404875902201,0.551643589632521,0.532366569927897,0.581633252392012,0.596339331713393,0.580552795505606,0.560601056843103,0.553532581929692,0.557962808193169
780,Cane,12m,0.547518983764853,0.586317295007965,0.532716296231226,0.563736653709743,0.582146351691857,0.548839918725321,0.564815387806563,0.543980093191972,0.577406481833827,0.593304818166177,0.550157118412693,0.550262915332682,0.534160735628301,0.581918527789323,0.599409041175118,0.581368667459591,0.561368318594389,0.554450784416899,0.557028660330606
790,Cane,12m,0.548304231164837,0.588361375545243,0.531546897888097,0.563354072645957,0.583070392343065,0.551300517573258,0.565316596560627,0.543158908963842,0.577234577651047,0.595414118193868,0.549145573575777,0.548501175626614,0.53451006724373,0.582262748216671,0.603648501596171,0.579983717738644,0.560536907625586,0.556147263197269,0.555300274291107
800,Cane,12m,0.547706489308539,0.587466909686566,0.530720041003006,0.56232321018216,0.584048413208512,0.553251529758521,0.565657176308276,0.542320837949075,0.577706879975289,0.595884179299618,0.54906353882201,0.547010164308169,0.535808565691374,0.582373458768034,0.606006621337574,0.578136091649078,0.562767543101551,0.557272186544865,0.553556499154931
810,Cane,12m,0.546427354017645,0.589048346116401,0.527988245244055,0.562262895329718,0.585278395808457,0.554871589110103,0.565057099690294,0.542872741257324,0.580853041102213,0.596526392796912,0.548417718269868,0.54600536197393,0.539436265857037,0.582598459150189,0.605978271117432,0.577141416490335,0.564055283064908,0.558162882896356,0.551996486074609
820,Cane,12m,0.54568391136758,0.590322952188119,0.528697375220443,0.560412996720252,0.586760496031664,0.555803661945351,0.563793124075896,0.54265702411825,0.582500443033076,0.597192113703654,0.548206341752703,0.545962829146109,0.542439534266428,0.583262223739411,0.608199687550847,0.575720514799684,0.565479976808041,0.557383424896889,0.551351501161622
830,Cane,12m,0.545959475980041,0.591767543361329,0.528284688193363,0.559241198819895,0.587532899377466,0.557123172675373,0.564768685026126,0.54419314550796,0.584739077796506,0.597905624746693,0.548494025030602,0.546151818391243,0.545722554999978,0.582447896301223,0.611521797258099,0.574426145984247,0.569286131396175,0.55772807805715,0.551105208989174
840,Cane,12m,0.545159546845448,0.593073136018618,0.528702305206822,0.558659950849309,0.589730324166452,0.560035992135835,0.565231125816343,0.546721150229893,0.587854943460973,0.598792519470005,0.546804107829272,0.546027377688957,0.549121673323828,0.584011957126723,0.613388748587684,0.573139448627865,0.573241713916954,0.557968310179734,0.551551165999915
850,Cane,12m,0.545449312871832,0.593108359028357,0.528634626751461,0.558064476659369,0.592619777500846,0.562416009744779,0.566747144183607,0.548784681085187,0.590287516002494,0.598629526577412,0.548062527187384,0.545309489018855,0.553173154658644,0.583707918941734,0.614671885740103,0.572381556953374,0.574543637504008,0.559191531589407,0.551697906477811
860,Cane,12m,0.545816694089101,0.591822980814317,0.528654059627418,0.557729711827125,0.595068328445284,0.563108929585749,0.566847094024843,0.550930597247289,0.5936716451589,0.59902470038514,0.548389597212365,0.546238765650598,0.553018811324518,0.584541814648261,0.616504064758155,0.572062295268568,0.577088179495228,0.559151072334333,0.55213971259426
870,Cane,12m,0.545444426036458,0.592479733727793,0.529919466226754,0.556201620322643,0.597780395125099,0.565134448136013,0.567707608160429,0.553042533666083,0.595042685008383,0.596838109207282,0.549111169614316,0.547521053834609,0.554541529140917,0.58507320407877,0.618585152320488,0.571811236974086,0.577577757215795,0.559305422442657,0.552421724826979
880,Cane,12m,0.546929388631073,0.594670208069079,0.529869901597526,0.555685333016565,0.601881064523146,0.567111302365228,0.571177406634019,0.55457746008237,0.59745928997735,0.598346566958785,0.549892924862132,0.546851549443291,0.558147725405182,0.584031157152053,0.621192602231368,0.569751826968102,0.578453161197591,0.560069049705572,0.552359614860565
890,Cane,12m,0.548410795512449,0.59603615908719,0.528993115925822,0.554900822581957,0.605089082232024,0.568326178499538,0.571587011733954,0.554621248281606,0.60216862484602,0.597501280946771,0.549653160968391,0.547677535484886,0.562093527554914,0.584075353114635,0.622282023275317,0.56679545794869,0.581599633862597,0.55891181727752,0.55132694020599
900,Cane,12m,0.549197878009169,0.595867928447117,0.53229915424041,0.555530079629443,0.608051681407979,0.568685861624435,0.570378204028186,0.555384007042385,0.606427510454043,0.599453388699264,0.547724322231111,0.54870022896125,0.565850559590816,0.583428831084462,0.622955471597507,0.563599714000328,0.584108703683956,0.557997306018877,0.551415436247308
910,Cane,12m,0.55035517894195,0.597853430385053,0.532793719455389,0.554452731090181,0.610835778285857,0.569732357457674,0.57036511704679,0.556223411423951,0.611636915751025,0.600494576603658,0.547185699089523,0.549164039148336,0.569734157829235,0.582360174936006,0.624973667698396,0.560938652183742,0.584445876540994,0.557438666059341,0.551386482127539
920,Cane,12m,0.551452586867425,0.598693856393463,0.532326648538767,0.555527215646308,0.613463277264464,0.56946346440161,0.57026978145383,0.559479289411259,0.620473546026983,0.602184769512778,0.544631163440866,0.550794169354483,0.573059055436677,0.582062930036301,0.623935910046003,0.557810342478571,0.58623825320453,0.558028200178981,0.552506192719223
930,Cane,12m,0.551840934104339,0.599895121586093,0.531877321175806,0.556672976722964,0.616020843113075,0.568632786136616,0.567496282142604,0.559481195405158,0.628027339142495,0.602051478739442,0.5447288486334,0.552484168661287,0.576623735241994,0.582017104944529,0.623523506868088,0.555209452094628,0.587150227602522,0.559129209600835,0.553041425601106
940,Cane,12m,0.552911691338438,0.600344110635477,0.531622991174953,0.557049005135392,0.61712097279361,0.569666883575285,0.567832508130857,0.558375379439929,0.632333746686414,0.601852717689184,0.544054582791085,0.554047977498958,0.580015868549637,0.582002460762885,0.623018474613296,0.553584313300197,0.587295911338504,0.560064810428635,0.553175757941984
950,Cane,12m,0.553494436471699,0.600267125479384,0.53263433850318,0.558257304171415,0.617497919865962,0.569827813930209,0.566254401952428,0.557302175259966,0.635854560795039,0.602347132884016,0.544747711599227,0.554856132748263,0.583638477742521,0.581689790462311,0.623014369943226,0.553768513349475,0.586932794135764,0.561446725878454,0.553173003950559
960,Cane,12m,0.554763208503617,0.599564433398003,0.533202956071738,0.56036277974388,0.61820574313929,0.570657754673817,0.5658993766879,0.555654721539066,0.638105360913063,0.602235997454485,0.546626826755937,0.555470019530233,0.586828087284477,0.581822755875999,0.624533850913737,0.551265166595481,0.58679246283891,0.562866362768208,0.552885916932293
970,Cane,12m,0.555093965630001,0.599976473861963,0.535652541184759,0.56357174589015,0.617822982028521,0.569642033850036,0.564460011950398,0.554245720260792,0.641667172655188,0.60038903741166,0.5483073436501,0.557383072177323,0.590386383729404,0.582623721517598,0.625634278856064,0.549865140296689,0.58598731011551,0.564892854705827,0.553996211342175
980,Cane,12m,0.556506547093318,0.600100085554644,0.535811808052648,0.565833001106247,0.617264532844327,0.569068252210974,0.563826791982268,0.554764906260554,0.646396814823578,0.601029153397387,0.548364193408286,0.559850475218237,0.592426227935772,0.582322660619527,0.624726233494116,0.549152391667246,0.585672480409301,0.564812773331554,0.555464731618577
990,Cane,12m,0.557379063284782,0.600718943738727,0.535514681584649,0.568342462760861,0.619647503068962,0.568302737002568,0.561288568158059,0.55542450308969,0.650710382397922,0.599304086368481,0.54723087578109,0.561550655536293,0.595912737646278,0.582792770079662,0.623257380694306,0.549128505289433,0.583895729796473,0.565719116854926,0.557068810176912
-1000,Grasp,12m,0.544587360017174,0.565476385680842,0.541342675393724,0.53381198384734,0.598154070398362,0.533643045661572,0.561086738643151,0.535044685547107,0.564046368210505,0.590862240620841,0.558578630038141,0.587156546556797,0.593403589741041,0.566914564097301,0.576920239128667,0.559860644094324,0.58353919166691,0.554467143549882,0.562136999152517
-990,Grasp,12m,0.545059982231966,0.565665383363574,0.540429526702923,0.533175360213074,0.600504280439985,0.532367467841268,0.556537165924716,0.534281429508,0.561983767732096,0.591218492400117,0.560358276463207,0.587626716182314,0.591634944792306,0.568811242081773,0.576070339057777,0.560812747650525,0.582528672764247,0.555559387359295,0.561965959757823
-980,Grasp,12m,0.546686706086739,0.565564086037757,0.541851419697206,0.533869100901833,0.60138979248967,0.530576215198272,0.556326387206977,0.533948440082318,0.562840073350046,0.592993441522985,0.564494837205384,0.588484146392505,0.58860130871082,0.569399191150261,0.573937067467458,0.562016937771248,0.578245041631705,0.555947790165439,0.56249111914007
-970,Grasp,12m,0.548007701662557,0.566316103339011,0.542781458375698,0.532744317919434,0.601269597688761,0.528506510208277,0.552793279915723,0.533685921447169,0.562524058428205,0.593498465364062,0.566433362410543,0.587590073668641,0.585855598667505,0.570039561786824,0.573400737018487,0.565589313860983,0.574756561038326,0.556229256921854,0.563877381901794
-960,Grasp,12m,0.548676258164743,0.565604985150422,0.543949012036737,0.532099128863825,0.601123845037162,0.528105704158926,0.548962485379274,0.532740544785668,0.563703366193879,0.593921770142347,0.566600213224272,0.588852931406366,0.58485657834227,0.57070739373696,0.5726986241698,0.566884494245642,0.572808846505945,0.556599194205603,0.56327823930877
-950,Grasp,12m,0.550409102462041,0.565565680508114,0.545388043547541,0.532443221403694,0.603926160864368,0.527632197092002,0.548717255181874,0.532660853464152,0.565184525193059,0.594158823022101,0.566865688126611,0.589764160690695,0.585248357753652,0.57143270062099,0.571607543225192,0.569463313017403,0.571611091760479,0.555709341380898,0.562787836271967
-940,Grasp,12m,0.551222790482001,0.564201293631737,0.545555085611363,0.532971934780406,0.606021140062467,0.527619332503526,0.549058635389193,0.532866198061051,0.567312023180714,0.593990735430048,0.568650371642721,0.590128170034135,0.585588854394748,0.572070395620654,0.571317370264604,0.57157563956252,0.569037542041785,0.555438669820878,0.564011084284563
-930,Grasp,12m,0.553171707825802,0.565507743273351,0.546278829856452,0.53236852289958,0.606682417576379,0.528173358271117,0.547668222976233,0.531379866048534,0.568915427827239,0.593687686973573,0.570051471507499,0.59010218671929,0.585329507758406,0.571152897390169,0.569782059743112,0.571973909956742,0.566505493863062,0.555216122337949,0.563984615702644
-920,Grasp,12m,0.554069969285716,0.565085455358929,0.547257232025957,0.530767941033579,0.606942662806698,0.529207737068569,0.547264611900336,0.531934190660462,0.568122513212597,0.593574370337973,0.573555314173278,0.592189521063136,0.584454189477183,0.570182271513385,0.569239000143159,0.574709956659829,0.565289476132787,0.556251410020809,0.565036837611458
-910,Grasp,12m,0.555060690977402,0.565813236275556,0.546523837119105,0.529605693150588,0.607572823670019,0.5277136081867,0.547296873581421,0.532093942012357,0.567424258303055,0.593767391547975,0.575101915814281,0.594056046197179,0.583629946683785,0.570138660868315,0.569612387302485,0.575738785345639,0.563373457481254,0.557683227703159,0.565313897779582
-900,Grasp,12m,0.556378071459648,0.567304801410431,0.547115277642557,0.530264647774115,0.608373579961096,0.528708873209478,0.547514031944919,0.531538090324352,0.567860357956454,0.594026744407829,0.574977641351832,0.593422042223386,0.583068607030562,0.569646484556263,0.571041865192798,0.580261292076887,0.562572636689851,0.558212986048732,0.566239209496479
-890,Grasp,12m,0.55837214625683,0.569155763596648,0.547033957639742,0.529282664515278,0.608862615126941,0.528242695993262,0.548470750219688,0.532385830539093,0.567736032598815,0.593581227021486,0.576025247250022,0.593180831759637,0.581461709252072,0.568581830341975,0.571088149359065,0.582052394709929,0.563081174054208,0.558572146553786,0.565952397374256
-880,Grasp,12m,0.558552649917642,0.56857055872387,0.545618660783059,0.529373468090152,0.608831235046633,0.527841535975617,0.549143126794549,0.533696640206369,0.566374965022139,0.592792978762352,0.577796301503079,0.594678800795624,0.579403941499809,0.568942457246996,0.570148637123616,0.58355649606725,0.564402387635849,0.55823726270023,0.566380500097804
-870,Grasp,12m,0.55847212872438,0.569139207029848,0.543318546517374,0.528484557752686,0.608760361425742,0.529660701121714,0.551096948062266,0.534642527673679,0.565045013448761,0.594066807521988,0.579729112039994,0.596771440575493,0.577464598251772,0.56891499626992,0.569222236714337,0.582511291066767,0.565850583996096,0.557880722368282,0.567734518536004
-860,Grasp,12m,0.558425493110063,0.568512591613562,0.542892547937751,0.52753312769143,0.608493367594409,0.531187811166672,0.553719882556398,0.535538072634249,0.563698546448191,0.594746955456086,0.579412782712795,0.59656904326005,0.574082998862837,0.569609205216617,0.569192230485669,0.58212074224548,0.567301312637519,0.558933156986882,0.567645138373597
-850,Grasp,12m,0.558328141656414,0.568179521598663,0.541443095533089,0.529836435085402,0.608165627292631,0.531870771932487,0.554752362160272,0.536275887399739,0.562168979676739,0.593328110994884,0.579438387155531,0.595158462804486,0.57325831706397,0.567894464815801,0.569563414142263,0.5852333022819,0.568714139082168,0.558807982096378,0.567635659055052
-840,Grasp,12m,0.5581109295318,0.566871405850512,0.541739406180412,0.529396985895637,0.60786796673399,0.532764041285429,0.555359388084459,0.538435982003811,0.561975001871773,0.593742133416452,0.578995927142081,0.59517015545581,0.574218431025472,0.567179087377834,0.569249997932624,0.582530089728884,0.569125070693675,0.558468957675964,0.567565419506949
-830,Grasp,12m,0.557700564594713,0.566060831489515,0.539861983863491,0.529202073646673,0.607917629191882,0.532662852208239,0.55556463394594,0.538775918731026,0.560757985922372,0.595757921498933,0.577708833895172,0.596242002888398,0.575625645227842,0.565356994610035,0.568391154819756,0.579231996042033,0.571048439075055,0.558233410869614,0.566989233784127
-820,Grasp,12m,0.557258460479801,0.56507021735755,0.540337426268729,0.528900097612971,0.607865518577671,0.53399205295145,0.556389328430026,0.540773640749554,0.557777431973563,0.595824401705789,0.57523835305763,0.598616446606814,0.574345137274723,0.564419841265309,0.567616241580415,0.577683049970601,0.572940444380467,0.558141645019612,0.566475776493951
-810,Grasp,12m,0.558518688943925,0.565034036505796,0.542292723893795,0.527599653878007,0.609150717406009,0.535804368058053,0.557601862504927,0.54147178244744,0.556497972552527,0.594631250349342,0.575390428389321,0.596773510587429,0.573105104263795,0.563564651595602,0.566957065395376,0.580041073398706,0.574736227758856,0.55755125823956,0.565040485774025
-800,Grasp,12m,0.559134208537201,0.563657406617383,0.543965393315817,0.528151474271219,0.609767299172773,0.537733530707806,0.556399961355384,0.541546029515584,0.556091860080305,0.595289383190442,0.574630770729974,0.598383267453125,0.573581029784033,0.562032979555937,0.566411480323961,0.577904859045161,0.575464916674517,0.557942040927473,0.563760987274191
-790,Grasp,12m,0.55947502832098,0.56318221168184,0.543110582416865,0.528363239303575,0.610063454452942,0.539645671752217,0.556430893083662,0.542542256722617,0.556435538611948,0.59624290183737,0.573761815833457,0.600014970846333,0.57322420615192,0.562651347893501,0.564979632440663,0.57684975932438,0.578474308043106,0.557379604767041,0.56375341321136
-780,Grasp,12m,0.558626668000267,0.562897719210704,0.54358481227205,0.527685857730054,0.609855849084682,0.541715152778227,0.555823485787233,0.544443666856048,0.557524529480381,0.595091871993448,0.570061216436462,0.601506513371262,0.573198304784242,0.562833000216189,0.565646663157273,0.578059639154519,0.577880177039531,0.555945398253636,0.563092573490624
-770,Grasp,12m,0.557595844842691,0.563528384689061,0.543359923750704,0.52699368340379,0.609323698164826,0.543667271823629,0.555842535564959,0.545888850297307,0.55946510792093,0.595416127474285,0.568258316961225,0.60221519238255,0.573213367899188,0.561137867482289,0.565649462738359,0.575678884696455,0.579804899278281,0.555238710360778,0.561635534380818
-760,Grasp,12m,0.556446687486423,0.564630559448299,0.54515786342608,0.526981273571002,0.610622245044216,0.545263409183901,0.554121779601525,0.548587044097237,0.559940437001924,0.593286789768456,0.56593915399034,0.599971034743297,0.573755156561196,0.5604836549218,0.565107950059782,0.575729286301721,0.582516064088915,0.555004517947226,0.56186861525201
-750,Grasp,12m,0.555356568206541,0.563897818461075,0.54455369480953,0.527511761426919,0.609969031132425,0.545779513338576,0.553992296954864,0.549239247812697,0.560029509129171,0.593289858578809,0.571267420980499,0.602672964084898,0.573050339271548,0.559606660060466,0.563378333528193,0.577039103449906,0.584054299479337,0.55379875528052,0.56235134118998
-740,Grasp,12m,0.554882645079766,0.564727926375231,0.545751731676282,0.525886583013555,0.610739432783142,0.545869868718101,0.554559651573167,0.550612713483805,0.561562209600393,0.594144003511509,0.571949443915097,0.604286133790977,0.573471702264215,0.560466112785994,0.561706874525258,0.579081844729838,0.585261625014326,0.553515648865076,0.562129217864633
-730,Grasp,12m,0.555836288332043,0.565528215480832,0.545775204628543,0.525523770489514,0.6128066799948,0.545619911530192,0.554057026525133,0.551151372249921,0.563744346173236,0.593115763928968,0.574273878130215,0.603839690192861,0.57492929326833,0.55945070834955,0.56048441998961,0.578343959459357,0.584399777051585,0.553271498321532,0.563057041389685
-720,Grasp,12m,0.555155107253152,0.567555527790333,0.548121705780408,0.524981372694119,0.613025605173335,0.545258284424854,0.551466827181007,0.552574385969862,0.564272544708891,0.592913549799494,0.575799731910962,0.602986199226182,0.575168952829909,0.560639538475064,0.559206681046334,0.577796712096996,0.584701495106147,0.553547695945278,0.561062676902588
-710,Grasp,12m,0.554730080136146,0.566458509891057,0.549636431219377,0.524208032296893,0.611537866054626,0.545236844260523,0.551664017394957,0.55404819239633,0.565244753290799,0.593038576066016,0.57604865740968,0.602104369155577,0.575962815138635,0.560216411690793,0.560557331638954,0.577194104429865,0.587498779097168,0.553948806304816,0.560064207790942
-700,Grasp,12m,0.554617314818492,0.56495264273499,0.550979519192404,0.52442826391356,0.608574401476153,0.545359683347812,0.550228283247509,0.555961612972502,0.565939607718102,0.59319464323608,0.575894153057827,0.600459294767756,0.575271956281398,0.55897378320106,0.560527410694134,0.575297016672152,0.588910296484081,0.554179470785162,0.559833466650736
-690,Grasp,12m,0.554783768555687,0.565601132021883,0.552667738053522,0.52428138500602,0.607670929297572,0.54493438766317,0.547407276311998,0.555955206092033,0.567681694689155,0.595046400427311,0.578666583282991,0.599055064639048,0.576862723616149,0.557344013638022,0.562077251440437,0.575478716229264,0.59057988861668,0.553623839072525,0.560219022366838
-680,Grasp,12m,0.55574863267923,0.564473001644365,0.552501778479741,0.522942690818417,0.607577753542924,0.54566375672359,0.547604883264903,0.556140048246268,0.568861647315249,0.595667808100348,0.579505022691213,0.597837538507011,0.575062111425275,0.5568929893973,0.561507698396022,0.576486836456141,0.590425207278174,0.552570831927928,0.559078148769133
-670,Grasp,12m,0.558203183089828,0.565086981677061,0.551851649383543,0.521899169421036,0.605683568701095,0.546189017746021,0.548457690994058,0.557526961899184,0.569841078320639,0.595380208528626,0.580492174813547,0.598782293218538,0.575139155651314,0.555596888195551,0.560278346877479,0.575992557034408,0.594117255192549,0.552675421778121,0.559287075765051
-660,Grasp,12m,0.559902462306018,0.565625873494449,0.552863722857754,0.521429040943739,0.602356085586107,0.54626001521657,0.549682642036405,0.558309150673628,0.572439291293038,0.59557698170531,0.580170120474302,0.596613339423098,0.57550943270907,0.557984456103875,0.560280864429028,0.576989294572675,0.59523514313349,0.552672281371818,0.559176158951114
-650,Grasp,12m,0.560006069544661,0.564829975240158,0.553785271983995,0.522208569255812,0.602136301735587,0.545913870353658,0.550449970493957,0.558887843118293,0.574813368299411,0.594683998656351,0.578407790176903,0.595349574122606,0.575952887484775,0.555946772511239,0.561447872449656,0.575576356720916,0.596127117950811,0.55314874645721,0.559285530908212
-640,Grasp,12m,0.559559239345347,0.565247042155419,0.553231070812805,0.523088460049863,0.60065806974532,0.546674082087713,0.549879851862762,0.55983686121075,0.57836629270378,0.59272949842185,0.578408293451142,0.593885386060232,0.574395113012722,0.556226560188567,0.563184504376068,0.576370783770722,0.598719974285627,0.552829434305665,0.560535198812653
-630,Grasp,12m,0.55926976751047,0.56460596385761,0.552813454540924,0.5233192454834,0.600322627024482,0.54833564180906,0.548758814114976,0.56116004733058,0.580096387539212,0.591931081631913,0.580007489027869,0.59362294586739,0.573212597838936,0.556662394831611,0.562521771870415,0.576610351673983,0.599081253325968,0.551273997043279,0.560841476317405
-620,Grasp,12m,0.561447473226669,0.564671724474575,0.552182169509226,0.522843765481476,0.601545529493126,0.550000759641215,0.549222672826651,0.560750620993966,0.581485149693869,0.590809158189047,0.579049410982473,0.593631081411469,0.571644407905192,0.555004385343162,0.562319248579503,0.577670157772566,0.599964415197822,0.550072908253859,0.561918619592444
-610,Grasp,12m,0.562787826211812,0.564040849685778,0.553236044896552,0.522863146331638,0.602619991297114,0.549203908723721,0.55111132916261,0.56173322711695,0.58265162129754,0.590641412105292,0.579276550518428,0.592372992723876,0.570351447150432,0.55361410950658,0.562906087821057,0.576539634923877,0.600253363826384,0.549125328313828,0.562753860289994
-600,Grasp,12m,0.562911305034888,0.564008761964046,0.553631578739523,0.521201119596562,0.601153722723696,0.548477553106474,0.553826755541456,0.561711443178109,0.581962672288593,0.590600603152709,0.579127567107742,0.592153708058089,0.568888725414987,0.553138022015137,0.563056820668626,0.575576868912137,0.600172305898932,0.548773851642945,0.563734673598871
-590,Grasp,12m,0.562686227439263,0.564943624905908,0.554324475777818,0.519877794906394,0.599328744829879,0.549190436629735,0.554791291513826,0.562248688534008,0.582925387345106,0.590867289178609,0.577859825544836,0.59197682697828,0.568127123756653,0.553146148935801,0.56311320048967,0.57555462571518,0.598501667902491,0.546850648176704,0.565313079764467
-580,Grasp,12m,0.562171207247996,0.565302097922365,0.554581419057753,0.517285919063776,0.597326542344152,0.547118079294711,0.555527301933732,0.563767756915968,0.583321765732083,0.591892709539761,0.579078353369909,0.591242858844746,0.568198897463313,0.551973906828648,0.562931886206553,0.574907739744746,0.59693606530742,0.546733492586937,0.567204742188738
-570,Grasp,12m,0.560978740505643,0.565728156680212,0.553150567757806,0.517598949470484,0.597737017926524,0.547444858030148,0.55549473317609,0.564699330350926,0.583517076817611,0.592439697882721,0.578378403087834,0.591946580619489,0.567327296106558,0.553274090371494,0.562763230793008,0.576206559121354,0.595442586075829,0.546705463748695,0.567446280236992
-560,Grasp,12m,0.559518810889246,0.565581423876573,0.554687534421168,0.517216494298042,0.597912154247828,0.547836288654809,0.554152264601998,0.564364101243872,0.582581112402073,0.593146851256172,0.578921558134077,0.592565141285704,0.567147267499771,0.553664090130103,0.564717826283512,0.576779227306337,0.593739471715676,0.546780774473541,0.568393099706348
-550,Grasp,12m,0.558764947693988,0.564937664885465,0.553244896800103,0.515439659848551,0.597766733999307,0.549948424329457,0.55265820701524,0.564696340796352,0.581986681215427,0.592220147692443,0.578126844801455,0.59214297584481,0.56712325396629,0.553188353098515,0.563826257650715,0.580079662430675,0.595155844466442,0.545832906980589,0.570072235437567
-540,Grasp,12m,0.559422641734931,0.566553254000502,0.554177147653552,0.516284522474535,0.596426171519495,0.549389486105767,0.552958917336628,0.562787821770298,0.582049718190489,0.590688476831162,0.578316227656646,0.590986025114468,0.565420887485761,0.552730114478599,0.562674409144284,0.581062495385855,0.592242197487028,0.544912546146333,0.571997552651687
-530,Grasp,12m,0.55904917381624,0.565344496094798,0.555665298430344,0.516610980898632,0.595351850386276,0.550185409699877,0.552648903356242,0.5597275707567,0.580218370431849,0.590403624668221,0.576335277190343,0.589260534649377,0.565905107065346,0.551967118768911,0.563588581859369,0.580697735559305,0.590730847864902,0.544355004334718,0.573330604631617
-520,Grasp,12m,0.559464236403426,0.56539438813106,0.555071534349098,0.51572998319486,0.594465705373264,0.55044054532243,0.550611798159251,0.559433994552163,0.580615365873238,0.591555233652856,0.575748895702779,0.590411916985105,0.565789296563897,0.552635787481161,0.564416417967823,0.582974021817178,0.590413900386999,0.544118185077841,0.573405324637936
-510,Grasp,12m,0.559942289975714,0.566749695584058,0.554236951021077,0.516132816753708,0.59424750113491,0.550118042772742,0.54939267749512,0.55859323821165,0.578803520619287,0.591571575165449,0.577308901218586,0.591576044339159,0.565849549471953,0.551605892758118,0.564291043694366,0.585129515464661,0.589536507666511,0.54350654164986,0.575041674668261
-500,Grasp,12m,0.559314873229619,0.568083977044074,0.555054971671883,0.515974716421191,0.59499475097226,0.548533207492475,0.550473695484247,0.556022048999483,0.577964382044939,0.5924167295778,0.576137136543931,0.592435925617354,0.565183068868245,0.552326600748323,0.564205867418116,0.585534775065437,0.58808768790006,0.542901951291553,0.5744277168507
-490,Grasp,12m,0.558294510268414,0.568724817782782,0.554837244180346,0.516685242574804,0.594767064158632,0.548074475954238,0.54914696026202,0.555392685073772,0.577571339897536,0.591944560946542,0.575823705026314,0.592190981080525,0.565301064141528,0.552232862213535,0.563376683895433,0.585675647029597,0.586849488010324,0.54229560612395,0.574236513038526
-480,Grasp,12m,0.557304907978949,0.568425393920285,0.553410910267475,0.517346088231551,0.595277107992014,0.54823830878986,0.55014870389048,0.553176001556707,0.577709010864213,0.592486534747137,0.574216526546817,0.592566848544761,0.565328489787989,0.55234639803594,0.563372152398885,0.58498984176277,0.583858685440653,0.540813975227868,0.572823682646149
-470,Grasp,12m,0.556590061575348,0.568450207032021,0.55512265210802,0.518300669941619,0.595456917703739,0.550591234647186,0.552301842153191,0.551944087761685,0.578191656813746,0.591901623528549,0.572611890677273,0.59199662711846,0.5643378436022,0.552948618981497,0.562148724691376,0.585210494475351,0.581819119799384,0.541122300482558,0.571674817962027
-460,Grasp,12m,0.555615358901202,0.568763259334658,0.555090326139518,0.518744002141379,0.595607258041383,0.552883891694069,0.550793952354676,0.553807460738401,0.577960867665634,0.591468864092975,0.572433362988258,0.591392649231716,0.563841198087116,0.552460961049427,0.561962030318791,0.585783955638635,0.578919563613547,0.540902974151426,0.571420779949334
-450,Grasp,12m,0.555647094606237,0.569311013565416,0.554701145447563,0.520578972093404,0.594780968058501,0.554718635670651,0.55295573256234,0.553500199265214,0.577203078600109,0.591588009103647,0.571614688471815,0.590584553186738,0.564114221996992,0.552778661089396,0.5628217228061,0.58492898646209,0.576089751025666,0.539943753031625,0.570137812578356
-440,Grasp,12m,0.554807844177289,0.569959174875102,0.555470636599506,0.521763253039109,0.594522549056458,0.555396816852068,0.554349201131052,0.550536446076762,0.575470512350521,0.593492821319202,0.570380289668207,0.590083957029455,0.564812570747777,0.553518009210564,0.562329566971863,0.583251402259659,0.573715485867493,0.538740012577563,0.570367851203569
-430,Grasp,12m,0.553393886429963,0.570463170796079,0.555421571112037,0.522514877265608,0.592266172571784,0.55600468294871,0.555030212881454,0.549684906704624,0.574707573864551,0.595138542247463,0.571596340077145,0.589341415148661,0.565357906382561,0.554019259787336,0.562902190409624,0.580814107862237,0.572106171280001,0.53766624272229,0.570926622440449
-420,Grasp,12m,0.551833630591328,0.570436320137075,0.554990726550114,0.523713608582789,0.59245400789657,0.55634335127782,0.554782518857769,0.549139207336109,0.574565258328512,0.59507143676267,0.572616773142967,0.588508009419357,0.565486271654813,0.553813406191554,0.564114671650507,0.578306035650611,0.571176947881614,0.537151509448552,0.569271150796365
-410,Grasp,12m,0.551384607795971,0.571507368422541,0.550630866154538,0.523541814852642,0.592153028202793,0.555097367816042,0.556193126749681,0.548117939546317,0.574396563377862,0.59455579692925,0.571911586156256,0.587460662343743,0.566462894139744,0.555110914020299,0.565168200085941,0.577392505383752,0.569947485197657,0.534591892403822,0.568947275932527
-400,Grasp,12m,0.551070174060103,0.571864676294656,0.548114685488504,0.524171203163033,0.5924480908591,0.554509253938731,0.557868525402287,0.547660999720594,0.571398359299972,0.593975903153913,0.571858579614781,0.58679886463403,0.566175701830684,0.554939078313875,0.567272547550286,0.576133470407774,0.569846388114602,0.53407200240346,0.566680211725986
-390,Grasp,12m,0.55113043283112,0.571223097009086,0.546805587989437,0.523486505087671,0.591734705535753,0.555071044171343,0.559421292676001,0.549430195841279,0.570266687701405,0.593811191828832,0.573148678684904,0.587806484110492,0.567734660567227,0.554241141489444,0.570300197880621,0.574377714157818,0.570716776162482,0.533451363006494,0.568298144771305
-380,Grasp,12m,0.550671514736254,0.570547374696566,0.546696206293933,0.523633884230135,0.59079824587188,0.554802011136393,0.559033842243562,0.54958029430703,0.569070393720081,0.593002273996538,0.574252472031839,0.589664881283297,0.568670997360894,0.554305361643819,0.570888914420718,0.574415376669183,0.571811209873785,0.532938741937432,0.567261576351112
-370,Grasp,12m,0.550467900010163,0.569643810791818,0.542604615932162,0.523336934791145,0.590009924591721,0.554279215618849,0.560244443321995,0.549781335067903,0.567974270371259,0.592269983479234,0.576440916927133,0.591768482479698,0.57001144431092,0.55489406746542,0.571568689276825,0.574461543128921,0.571183930708948,0.531983358394621,0.567060178431002
-360,Grasp,12m,0.550326379670076,0.569183568111661,0.539666711520514,0.521301330456968,0.589323401159169,0.55337865822007,0.562098225294972,0.549280297944423,0.566295535493906,0.592065238782395,0.576680032464696,0.590379171881589,0.570395314271102,0.555262963683699,0.573076511381502,0.575634709879366,0.571195575877951,0.531634531891588,0.564071087651044
-350,Grasp,12m,0.55019786870234,0.568420847770897,0.537778499181405,0.520258065633355,0.58788542244177,0.553462815532573,0.563571826103646,0.548757775377037,0.563582457560169,0.591621544806537,0.576483016236471,0.588611573683263,0.571818826181822,0.555407358740734,0.573467552313131,0.576948367741187,0.571204035680144,0.529337964828536,0.565145453958882
-340,Grasp,12m,0.548873671109373,0.568039904000781,0.537413736002224,0.520788367414673,0.587861289990217,0.552481106976975,0.564581332665787,0.547772441676923,0.562868609340937,0.590755459186157,0.576220472801405,0.587711450581582,0.574611689747147,0.556701541539532,0.575191666988516,0.57815208750944,0.571516152277845,0.527969549480091,0.563969183248162
-330,Grasp,12m,0.548519057343799,0.56767342596017,0.537028520527707,0.519856602013582,0.586571056805675,0.55014172468361,0.565430853098112,0.547622896656887,0.562229816972164,0.590352890058109,0.575844412299112,0.587187077808359,0.575349382684742,0.555767603502505,0.576394665044857,0.575250253419768,0.57336598312342,0.52748600727254,0.562412210791895
-320,Grasp,12m,0.548510818476987,0.568417831790188,0.536982851151135,0.519709185888015,0.585653173915382,0.54885201937278,0.567510619024265,0.546167695439353,0.559749872626504,0.590342618423289,0.572898462199281,0.587284715096717,0.575278171860982,0.555360903094984,0.578132346537408,0.575207308863387,0.574294013068616,0.526003929900796,0.560157284946997
-310,Grasp,12m,0.54748100586905,0.569234784241562,0.535767621102595,0.521606591388416,0.585293152971458,0.547939021516411,0.567049565110417,0.544668143354863,0.558836431237639,0.591224852292556,0.572251939317862,0.587165710424262,0.576008384518644,0.554960860605927,0.582287256047612,0.578345999415657,0.575618981496636,0.525212227461591,0.558214793045535
-300,Grasp,12m,0.546297524543311,0.567724623792448,0.537224422754572,0.522452576089402,0.585581252569801,0.547160679378305,0.565553525438638,0.542729590015149,0.557380773690736,0.591675763986398,0.572173040567461,0.587540001756777,0.577623695769142,0.555355744734829,0.584637267525256,0.579307341719698,0.574810537501627,0.525448362127807,0.556139028027776
-290,Grasp,12m,0.545935599250165,0.56779879601438,0.539174732194769,0.522925656310398,0.586511002527176,0.547167662261219,0.565263881162128,0.541898779994364,0.5582975135343,0.592313830554289,0.570088204426437,0.58793740167551,0.577857275637717,0.554282549601399,0.586832682131231,0.578705847943514,0.576242553148362,0.52659060841879,0.557300881308097
-280,Grasp,12m,0.544811649714898,0.568620173516702,0.538006105809334,0.524130624396229,0.586063622435204,0.547373078305072,0.564012912730648,0.543174669243257,0.558694606704317,0.592599881619678,0.567335229550204,0.588149561560712,0.578976590878162,0.5537903066343,0.587698968329338,0.577355725929948,0.576930173606191,0.527954491625017,0.559625468567793
-270,Grasp,12m,0.544228409736464,0.568938613837932,0.537433046670808,0.523771208674691,0.586598117457817,0.545471022264506,0.563697810180819,0.543812091969572,0.557888983617216,0.594072002996312,0.564285013608031,0.589280207742693,0.580791367446528,0.553168144664704,0.588032036887316,0.574469889994916,0.576395948086387,0.528430221130488,0.557667007809333
-260,Grasp,12m,0.544149436012855,0.568750029616143,0.536372477543277,0.52571259880856,0.58709590732167,0.545240897891181,0.564640791708131,0.543452895361969,0.557404121396354,0.594732274228183,0.563696464660666,0.588218262223461,0.582596724671075,0.552479852401328,0.588049238803123,0.573167181433546,0.57641125249799,0.529187555741513,0.557802224389762
-250,Grasp,12m,0.542282688944839,0.5677053423912,0.535323214441027,0.529947976130754,0.586381383815383,0.543817822631634,0.563969002944064,0.542550752544892,0.556941306291692,0.593991530398246,0.561831545222124,0.587949286620708,0.583373141739201,0.551847183975891,0.589337333647525,0.572718781022638,0.575911046460987,0.529570197244679,0.558642940517992
-240,Grasp,12m,0.54267216226667,0.566600363448787,0.536320097019883,0.529290249071034,0.586970797358247,0.544321279093796,0.560942345476425,0.54110189797465,0.555299284737641,0.592835314635728,0.561396757066174,0.587620318111367,0.58250285945578,0.552444261185108,0.588880151267012,0.571528944040784,0.575673710404824,0.529637453229921,0.561128454322785
-230,Grasp,12m,0.542784393668583,0.566194072013541,0.535063792992375,0.529607806154495,0.588082108042511,0.542237319528701,0.561458480487432,0.539655636409728,0.554126514162842,0.591888343869493,0.559625611151031,0.589957628762147,0.58223497915263,0.553768568940663,0.589394260077336,0.570753621377167,0.572455355552125,0.529392517801327,0.561716977926239
-220,Grasp,12m,0.543332363735928,0.565727549256088,0.533428218370358,0.531368327403426,0.58936267884813,0.541376793796815,0.561173223749485,0.538831041655917,0.553174616852756,0.591998386355886,0.559197097945615,0.590940975031071,0.57990553047617,0.553540721436063,0.591949988322682,0.570167560449573,0.572601535995265,0.528845837458154,0.560842206617006
-210,Grasp,12m,0.541257129456181,0.565661393937096,0.532312414696539,0.533365658256809,0.589571607686521,0.54047560616272,0.560635870421877,0.537864572544909,0.551687707946219,0.59102415640583,0.558965019706037,0.59277590316661,0.578903073449471,0.552353665659143,0.590641822897818,0.569344952975468,0.573125052723571,0.528522238785659,0.560601848761928
-200,Grasp,12m,0.53994953674427,0.566753742569107,0.532464941754937,0.532179883379665,0.590194702950679,0.541937518270257,0.55806901045002,0.535939985177948,0.549887287218966,0.589750381932809,0.557372834187337,0.591748174679357,0.578294665164533,0.551399415757991,0.590560554669196,0.568855888359223,0.573724439265542,0.529982369291978,0.561960105959043
-190,Grasp,12m,0.539691506951809,0.565950106634531,0.533079989141967,0.528781107666096,0.590576347513181,0.542418791366539,0.556786161275208,0.535180001105752,0.552129006766563,0.587654889699116,0.555839493592061,0.591788004607005,0.57760471774906,0.551814202299171,0.590781132299642,0.568489589796108,0.57399580884975,0.530445925356251,0.560559417851474
-180,Grasp,12m,0.539356914228514,0.566552963046025,0.533950768347776,0.529460942986606,0.59067393220775,0.540353260733059,0.56015521605621,0.534746214397994,0.553085281936234,0.586741842583208,0.553511105034627,0.589495311189824,0.577465838594532,0.551936780886598,0.591603041564334,0.568016764864676,0.573804867116572,0.531182185828903,0.561979708942423
-170,Grasp,12m,0.539703806959613,0.56737438160323,0.533193660395669,0.530768052306669,0.591472389475498,0.540846795219538,0.56549078586684,0.536849318567548,0.55318258385918,0.587379787321474,0.552581459150562,0.589193231142967,0.57501027489966,0.55164464499615,0.590538080340927,0.566530355720227,0.571536775329752,0.530717948516403,0.563096779969284
-160,Grasp,12m,0.539728609899895,0.566548081818868,0.533380148136722,0.532115755597884,0.592889435255503,0.539049535497058,0.566365472758618,0.53549750544313,0.553054052741226,0.586818210217379,0.552715658776634,0.585234219113164,0.572385680302323,0.551640467209624,0.588903957684743,0.565964768554863,0.569226764813881,0.531824197296595,0.563824078112278
-150,Grasp,12m,0.539808820275736,0.564683215258453,0.532556934018191,0.530972115891132,0.592966187899048,0.540403650240761,0.571059728984717,0.536476113523414,0.553682304542701,0.586038873336186,0.552891266002265,0.580373328536005,0.571128010330855,0.551847812003258,0.590083786156815,0.565597894382454,0.570854250871566,0.531888365553889,0.563970734980434
-140,Grasp,12m,0.539394740646411,0.56686971755181,0.531621387357287,0.531813017967101,0.593258371765904,0.537556348393514,0.574224624878326,0.536656546436261,0.554079824711093,0.585011291591742,0.555163440784166,0.576164801457064,0.568648241112865,0.552312662524181,0.589685814934987,0.564703681472531,0.571107925039014,0.533018390827105,0.563908842767781
-130,Grasp,12m,0.539811402135776,0.569532664458675,0.531031352323841,0.53298084473657,0.594701448667043,0.53763681290623,0.578927938831978,0.53850440636338,0.554756983195903,0.583634603862339,0.555441745382872,0.575025627443558,0.570708543532137,0.552938138310938,0.588137698403477,0.562424426975709,0.570462918542112,0.534239377769441,0.563791359468673
-120,Grasp,12m,0.539460440300057,0.571648314061147,0.533728442796186,0.531857654703928,0.595924581395052,0.538399313393733,0.582270458894181,0.541586289909878,0.555653054569186,0.582502891465982,0.556623618220986,0.574366454144388,0.568227099342121,0.553653625678292,0.587404965260687,0.562895619194708,0.56852208042561,0.534918112031015,0.564003020843353
-110,Grasp,12m,0.538879163458182,0.572655626574223,0.5349812311909,0.531585621400631,0.594394476227312,0.535783587640759,0.583781885138427,0.541829486823499,0.556193110657374,0.583370434809223,0.555887194720986,0.570529455262127,0.568879870305888,0.554199340902048,0.587642296049652,0.563006714469113,0.56755874424577,0.53624443540515,0.563314052995416
-100,Grasp,12m,0.53809503052266,0.574297886928085,0.535885629858046,0.529636199337231,0.593941789382717,0.534800950908016,0.590029180700786,0.54353668490616,0.556862819044585,0.583036572990663,0.559343647855942,0.56847862877784,0.566275053003775,0.555007752401692,0.586483961629267,0.561974045314391,0.565981407807427,0.536235661559718,0.562337981934225
-90,Grasp,12m,0.537282708475931,0.576721421017963,0.535427115999141,0.531446956796073,0.594047829878701,0.534293353404507,0.591881125332339,0.545334740865347,0.55661113378921,0.581938070556962,0.562243619311081,0.56616071377766,0.563907937524167,0.555811094063179,0.586607405818236,0.559765351390723,0.565747280771869,0.537626159827781,0.563282418206474
-80,Grasp,12m,0.536681053544654,0.579419641576702,0.534640462068133,0.530908488473438,0.59568842841983,0.533708336314928,0.592607874015972,0.547077511608546,0.556321871752927,0.581052867476338,0.560567481598169,0.563877470807627,0.563795329032652,0.556093649777832,0.5853982102972,0.558266275940021,0.566005798950461,0.538411301003068,0.565096367325511
-70,Grasp,12m,0.536323055899122,0.58222564276089,0.535027903459929,0.531633727259428,0.597223294891885,0.533775078684653,0.597037913411051,0.549471581528664,0.555266816029087,0.579711980080296,0.560623844584158,0.562144285846526,0.564579863353571,0.556685881280324,0.58485906479279,0.556178990796869,0.56556451203263,0.538018717853863,0.567421358661403
-60,Grasp,12m,0.536449687906985,0.583989275035999,0.53652057621612,0.53108781461044,0.598268351124055,0.534596302964681,0.598716954626482,0.550873882264456,0.555189304509906,0.578127500064082,0.559721831131038,0.559846298367769,0.563286581287219,0.556814083086561,0.584352246283501,0.556210654853376,0.566178651825245,0.537660813291082,0.570832301620541
-50,Grasp,12m,0.536453017077036,0.587007487080107,0.538195127842883,0.5314786126347,0.598273132378501,0.534187037559387,0.598637436601851,0.552127971261495,0.555445697497711,0.576278801974565,0.561182985521375,0.559618854969922,0.56246418247109,0.556688047768914,0.583927196246506,0.556819161002816,0.565362486527861,0.536249226214153,0.573481108613178
-40,Grasp,12m,0.536981212746957,0.588338085705393,0.539039249501218,0.532834666051172,0.596503721420789,0.53449183544936,0.598812165457694,0.554918940064242,0.556117034741678,0.575822846986601,0.561459788194749,0.558923281769577,0.561083996804899,0.557084640157469,0.584438902952548,0.556001474988403,0.564855050838903,0.536787910587752,0.575072413850214
-30,Grasp,12m,0.537440884359713,0.589626395859376,0.538960870437277,0.533985017211265,0.596617342441649,0.534471183946508,0.598950889561415,0.554403183072846,0.554675852780002,0.575614899827686,0.56086740336946,0.557272217050722,0.557873171953598,0.559561885131259,0.582738973281777,0.553666058819288,0.568890502091211,0.538826104814813,0.576295260852046
-20,Grasp,12m,0.537592969727824,0.59061972870757,0.536796735981996,0.536369107638982,0.595852317985333,0.535138597335992,0.595660284481412,0.555986590735822,0.553173708161458,0.574140186351522,0.560386905825671,0.555934934368734,0.555631794342244,0.559103415305832,0.583558776437069,0.55401633496969,0.567375527603311,0.538303026966217,0.576144469116605
-10,Grasp,12m,0.538156262134335,0.590397477930764,0.536142821336591,0.537538052195074,0.594142036413735,0.536101253125741,0.596411401895756,0.553169758255925,0.555337450718558,0.573893325038541,0.559135825499887,0.555194994264941,0.552683034307995,0.560168207327654,0.584322013312689,0.55647469486239,0.569056272373305,0.539549292437542,0.580125580870394
0,Grasp,12m,0.537834801242473,0.59225883424289,0.534032959685073,0.539554879255094,0.59222576157993,0.537654484631951,0.594978705406295,0.553144633079841,0.554497288087838,0.575545861564637,0.558682585143769,0.554224884069947,0.550194313907096,0.560509380233732,0.58456100488893,0.559044180178642,0.570939566994013,0.540031240618855,0.581259206071458
10,Grasp,12m,0.538360726568336,0.593643119943363,0.533374016357736,0.541546497828022,0.591176189795882,0.539565471496935,0.597439078234458,0.554388796134221,0.553646532425721,0.575782621305087,0.556870150961215,0.553227224466885,0.548564913325713,0.560976350882202,0.584805467541386,0.560212536719965,0.570994724217046,0.5404520981845,0.580870268785325
20,Grasp,12m,0.537788859533827,0.594846093196009,0.532631516101862,0.54274719676003,0.587470002635207,0.540174526709258,0.598990648809744,0.55416643180467,0.554677423092942,0.574630679917753,0.554510192786426,0.551965974762126,0.548116757377716,0.562443300438632,0.585732020286529,0.563533854183075,0.570529639181829,0.541094429257539,0.581442921396804
30,Grasp,12m,0.538778893263049,0.595584013362573,0.534900997612774,0.544064679348669,0.586194611420716,0.540294898436746,0.596133273801085,0.555322579489031,0.557910717759716,0.574853035437407,0.55388819828381,0.551159576786658,0.548197336464222,0.564042788769459,0.585322351741441,0.566389192046194,0.569737757916815,0.540160114654503,0.58370254609005
40,Grasp,12m,0.539690972178982,0.595997517720122,0.534648393760906,0.544114149719886,0.584985799407291,0.540541080126321,0.592943010115905,0.553377926554405,0.559005956601081,0.575092742376217,0.552219842317344,0.550900826062566,0.548833598746681,0.564192312318199,0.585474344324968,0.56829058777767,0.570885514109934,0.539912536887142,0.584766075253155
50,Grasp,12m,0.5399734611647,0.596562130589213,0.53657773528851,0.546361353203289,0.583510676796954,0.542077278342309,0.589505524249495,0.553724641021959,0.562683370022715,0.574536142972498,0.551648687428293,0.550102639284334,0.546921972716537,0.566424289083234,0.585790333306252,0.571863203968124,0.569636660052563,0.539400998203998,0.584068056588255
60,Grasp,12m,0.540567422549766,0.597976175595809,0.536737712150815,0.546258021736846,0.582713538261391,0.541656636664091,0.587669788350671,0.553489825383981,0.56654669705,0.574044633807624,0.55266464000705,0.547660621553274,0.545441702418408,0.567044869122416,0.586454263045649,0.575139929844758,0.56797443543685,0.540322130615236,0.58656829088538
70,Grasp,12m,0.539979714951958,0.596689529374135,0.539216968876454,0.546387495266307,0.582181029871915,0.542040146341715,0.584847437622633,0.549680661894969,0.567591620993688,0.574512602605876,0.553196830502233,0.547487223962078,0.546145202368126,0.5683026898653,0.586947191230754,0.576557044869461,0.565871993041756,0.54233287578772,0.588205959834
80,Grasp,12m,0.538924747486332,0.597886085591877,0.538848724351897,0.547267679183148,0.580533301323285,0.541701072149666,0.582372660428159,0.551100278791963,0.568023708996283,0.575685662168681,0.554956686089875,0.546740967477029,0.545553139472952,0.569900758593302,0.586790096405325,0.5768935066412,0.561605017848506,0.541689383090191,0.588903188986296
90,Grasp,12m,0.536509891446827,0.59915616265681,0.538869344276923,0.549120452801973,0.579286229328082,0.542405847979679,0.581423375939899,0.546487331010526,0.568417457817852,0.57370102744192,0.555608730755822,0.545853558136318,0.545125111888308,0.570572621963194,0.587449642575608,0.580179646833375,0.562816911295802,0.542272069827697,0.587039590761743
100,Grasp,12m,0.53504796517238,0.599269626659236,0.538169248595929,0.548076781116205,0.576914545842147,0.542353760034853,0.579493683975795,0.545654268494719,0.570613279134178,0.574605272837086,0.556245603667141,0.5457156870592,0.545891805580066,0.570148530441184,0.58931373954851,0.581763386724873,0.562188089165931,0.543021186313796,0.585503677569682
110,Grasp,12m,0.534602773155425,0.600768117195382,0.53867772227507,0.545796244148876,0.576629957775686,0.54187855349039,0.575453241669938,0.544010897956449,0.571792977287387,0.572296865800563,0.557263777506772,0.545989827863087,0.544249491560225,0.569844206460309,0.589806099514834,0.583977495412401,0.562001886100736,0.542898139365,0.584185237873594
120,Grasp,12m,0.534218487900476,0.6016479593039,0.538893127927964,0.545024567396649,0.575670385143696,0.540595264467624,0.574294496151161,0.542987689407921,0.571391875902446,0.570675800883428,0.561522547682136,0.545919243270828,0.543517403833934,0.57027905457381,0.58865365448143,0.586250255597822,0.562302894829012,0.544600649999018,0.582351545163795
130,Grasp,12m,0.534360790606363,0.602672848031268,0.540715372151745,0.543420553744532,0.576441006073905,0.537655669645386,0.574387442227407,0.542399099421693,0.572062865256782,0.569670580200818,0.563465774335567,0.545540347589063,0.541591678543415,0.569667652502964,0.588122880042464,0.589654430668904,0.560557540768163,0.54604171710446,0.580397567300259
140,Grasp,12m,0.535705082683527,0.602734577505353,0.54150603527844,0.541274212672587,0.576247122061761,0.535955934719748,0.572585391363575,0.542415614388128,0.571838761077346,0.569258609281552,0.568628002692111,0.544852516648181,0.542496851600107,0.569705091784156,0.586870097109825,0.587206431556302,0.558893172148082,0.548399609656135,0.578167874887545
150,Grasp,12m,0.534455104386641,0.603054782860052,0.54224995179626,0.540934255000056,0.576497815919744,0.53513813449223,0.572353258389072,0.542147692594912,0.572772859149693,0.568171615844819,0.571319919050377,0.545706798201963,0.542615252371693,0.568531320745346,0.584969938761291,0.589987409708084,0.559982656662635,0.549067921597571,0.577221792408067
160,Grasp,12m,0.533711143254519,0.602751402158973,0.543188498488027,0.541581773924123,0.576314181384622,0.535061350450771,0.570495212622748,0.541740033208828,0.575167648228123,0.567813625043691,0.575074300038871,0.544824767181798,0.542157739856367,0.569243721754822,0.585671941853129,0.587848036554887,0.562061039202258,0.551355057597907,0.576512851581843
170,Grasp,12m,0.532724532994139,0.604433737963121,0.54347740154087,0.542243451067008,0.575843213620481,0.535143520363529,0.569562426736034,0.540744728965889,0.575666029971304,0.567711648350757,0.579084501409153,0.545154071005571,0.543443468577194,0.57199248563095,0.584336978428447,0.589306772668331,0.560526631622501,0.551295435753913,0.577281546482189
180,Grasp,12m,0.533411256741478,0.603457939547678,0.543490400631233,0.541323757761919,0.576704459352308,0.533538324500084,0.566300287131219,0.541381955203596,0.575416860106692,0.569432381783653,0.58155460036635,0.544121611693119,0.545004206035054,0.572252199119244,0.584512820457331,0.589861177192482,0.561461710086707,0.552114049152538,0.57638804818836
190,Grasp,12m,0.533126352138004,0.602733612470796,0.544541225874253,0.539709754020804,0.576836983569092,0.534425648678211,0.566170869412206,0.541615701246493,0.574188131290404,0.569652562093983,0.5840572136591,0.543460184897107,0.546343525249649,0.572071570481127,0.583687423636132,0.587911393059961,0.561155027017811,0.554040726321733,0.57522795868435
200,Grasp,12m,0.534244403507243,0.602639957535314,0.542602318782342,0.537723160918455,0.5794568748136,0.534067459658376,0.567822523121018,0.541110596260553,0.573837740453344,0.569525850512807,0.586388350322454,0.545121414622114,0.547275224730215,0.571059507921589,0.585452011359913,0.591049624915988,0.561273543195634,0.554713504916553,0.57483503673983
210,Grasp,12m,0.53457151144154,0.602259377851537,0.540494722588473,0.538230469745468,0.580327772251276,0.532542291985181,0.567256759724807,0.541127742548299,0.574496949126613,0.568015437366888,0.586950780362916,0.545707923693936,0.548755222198052,0.570350080302566,0.586560679265005,0.590325842688533,0.563961990529996,0.556327396336858,0.573756998054744
220,Grasp,12m,0.53409427990849,0.604416556045871,0.540978566143239,0.540516478885675,0.580588490263686,0.530617138316388,0.566071764200344,0.540824802097,0.572996385688521,0.567082905371937,0.586358034943794,0.546125985731637,0.550265408948902,0.57099629291134,0.588161716501541,0.587060738461722,0.564411619555475,0.556427766755086,0.573469209344646
230,Grasp,12m,0.534523118053176,0.603577689849019,0.541537147609313,0.540140972568636,0.581711191485986,0.531036314377044,0.567864372633174,0.538737107772174,0.571567764378027,0.566835429747018,0.58836016421519,0.545614020818156,0.550785245705035,0.570334668373507,0.590221559920901,0.586499137615962,0.566505971092929,0.556146320035048,0.573447920554558
240,Grasp,12m,0.534640721539882,0.602430969189623,0.541355124399798,0.541966611157951,0.583906502933695,0.530107231745999,0.56826766757095,0.538651523701095,0.571587959260421,0.567081092707973,0.585156820857744,0.546341448325173,0.552335087762871,0.56902564199359,0.592498663415764,0.589086037550086,0.568646303121958,0.554833513929898,0.572889000434405
250,Grasp,12m,0.534496006594175,0.601389569484211,0.539617767388115,0.542519980159729,0.585151029132126,0.530786316149317,0.569926347248787,0.538848423010085,0.571410104384391,0.567288145860619,0.583892458826358,0.54767487258191,0.550573667492284,0.570804597353427,0.590963343189078,0.588744786712373,0.56951075761552,0.5533821173069,0.570509437016151
260,Grasp,12m,0.534593508539011,0.600395694869296,0.536307458793434,0.543780622287832,0.586260887388474,0.530176352517256,0.569765446130638,0.538653246596303,0.568919581569672,0.567956316716671,0.581190356244322,0.54744255272305,0.552789616998117,0.571631243080496,0.590500711660025,0.58781125589758,0.571080460791054,0.556404677318009,0.569660248886625
270,Grasp,12m,0.535704511173636,0.599103092800271,0.534366115469275,0.54293449166808,0.586552636659755,0.532888187864616,0.570807342213986,0.537159587670118,0.569109474123203,0.567723325161084,0.576637935095111,0.549434734234493,0.553649311360621,0.572089797259002,0.58986350380326,0.586834874548536,0.572950091232616,0.555766881529029,0.568907593859493
280,Grasp,12m,0.533644113514575,0.597515271901564,0.534579407230625,0.543433458636672,0.586290967958814,0.53189744014382,0.572518693277731,0.536886545884153,0.567218935896814,0.567185889495211,0.574633975284091,0.550000133679158,0.553190266846894,0.572279774954206,0.590010271615901,0.585722680216487,0.575271904376877,0.555447033717777,0.571072438991839
290,Grasp,12m,0.533699438427436,0.596919274877898,0.534814413587421,0.542714877814383,0.587063975675686,0.531171975718075,0.572620318242701,0.538431243135188,0.566892194963972,0.567171937871552,0.571642832562473,0.550016856646676,0.553699365445968,0.571452934298867,0.591216359079608,0.586434791116331,0.576781708706948,0.555394709209595,0.572148505390591
300,Grasp,12m,0.534540072985762,0.596435526390011,0.535766030010082,0.543092508224069,0.587699717254823,0.53149070497849,0.573807528572565,0.538204475465963,0.567995917843408,0.567545102644676,0.572420007767645,0.549683465412739,0.55673569007542,0.570823854315108,0.592452370674571,0.583843604988638,0.578423622390571,0.556501237111092,0.571448109471334
310,Grasp,12m,0.535181022295071,0.595311208197432,0.534970459704686,0.54384810002205,0.587221991073107,0.532928528218784,0.574951565246285,0.53794742044748,0.566146845895861,0.567055626688849,0.569886105052167,0.550406152590958,0.557595974704841,0.571224957553792,0.594591890081092,0.584680204153784,0.582871149380393,0.558149133340685,0.571729987242801
320,Grasp,12m,0.535486682892615,0.593300119294191,0.535922364352396,0.544944735074563,0.586686457480829,0.531321026969784,0.574920629746117,0.537790035403116,0.563849478463117,0.566428015062612,0.570605195850385,0.550966285701491,0.559133104719774,0.570921573865461,0.59756914379251,0.584736446079576,0.583572638563578,0.559275209201593,0.570847643112355
330,Grasp,12m,0.536032030898789,0.59112213375263,0.53532684576448,0.544162099754472,0.586814817380206,0.529987374739579,0.57966752731881,0.535656585113693,0.562190951155245,0.564937945755815,0.570202336348892,0.551607137935035,0.560542325005092,0.569761626833766,0.598512263464163,0.58571232261485,0.583667530645014,0.56091607977502,0.568501772356938
340,Grasp,12m,0.536319355864784,0.590909386203603,0.535979384870178,0.545192964069766,0.587740883182913,0.531574458992946,0.583257833725128,0.534954533335402,0.563449400844882,0.564939480394535,0.570705532591539,0.552658851900884,0.562188174832542,0.568579451070161,0.600183381121927,0.585322551416281,0.584682714950783,0.561365746020406,0.566423488238173
350,Grasp,12m,0.536369191538512,0.589422279718724,0.536547841864755,0.546763473365571,0.587798391960398,0.531489342701326,0.58125074855469,0.537173331504908,0.565245830257701,0.56575378802949,0.569194850160919,0.553490374248099,0.563002659512901,0.568912231987271,0.601989755110249,0.582199839145771,0.58958752520836,0.563610797257553,0.565223786572841
