Time,Condition,Age,connect_overtime_LA_EEG_12_P04_CTS_MTH_chanpair_12m.mat,connect_overtime_LA_EEG_12_P05_CTS_MTH_chanpair_12m.mat,connect_overtime_LA_EEG_12_P06_CTS_MTH_chanpair_12m.mat,connect_overtime_LA_EEG_12_P07_CTS_MTH_chanpair_12m.mat,connect_overtime_LA_EEG_12_P08_CTS_MTH_chanpair_12m.mat,connect_overtime_LA_EEG_12_P10_CTS_MTH_chanpair_12m.mat,connect_overtime_LA_EEG_12_P11_CTS_MTH_chanpair_12m.mat,connect_overtime_LA_EEG_12_P16_CTS_MTH_chanpair_12m.mat,connect_overtime_LA_EEG_12_P17_CTS_MTH_chanpair_12m.mat,connect_overtime_LA_EEG_12_P19_CTS_MTH_chanpair_12m.mat,connect_overtime_LA_EEG_12_P20_CTS_MTH_chanpair_12m.mat,connect_overtime_LA_EEG_12_P21_CTS_MTH_chanpair_12m.mat,connect_overtime_LA_EEG_12_P22_CTS_MTH_chanpair_12m.mat,connect_overtime_LA_EEG_12_P23_CTS_MTH_chanpair_12m.mat,connect_overtime_LA_EEG_12_P24_CTS_MTH_chanpair_12m.mat,connect_overtime_LA_EEG_12_P25_CTS_MTH_chanpair_12m.mat,connect_overtime_LA_EEG_12_P26_CTS_MTH_chanpair_12m.mat,connect_overtime_LA_EEG_12_P27_CTS_MTH_chanpair_12m.mat,connect_overtime_LA_EEG_12_P28_CTS_MTH_chanpair_12m.mat
-1000,Cane,12m,0.576002641698235,0.535967231387628,0.570876504328816,0.558399576135618,0.495377189474091,0.526779403955044,0.568142795761571,0.561746197995761,0.619431973345987,0.576200207217223,0.5923105222212,0.550152891272828,0.506934543053118,0.51805776004432,0.552058766474364,0.50109509145552,0.548014535737158,0.493006535711741,0.540701538313634
-990,Cane,12m,0.576526077882354,0.536742378336746,0.567904486689814,0.557954495062372,0.496173256132556,0.527009277402391,0.569265957829479,0.560395250351525,0.619609512875774,0.57563041672511,0.593485665283302,0.551081110284565,0.507096171437626,0.518234863960686,0.553158706671378,0.501511711837697,0.547612126237016,0.493494592168357,0.53953941967143
-980,Cane,12m,0.575424668786873,0.537354507516114,0.564714350578559,0.557107047292478,0.496690568764486,0.526076034694695,0.571585404570329,0.559395108572999,0.619630803451339,0.576597675150913,0.595061781058038,0.551515117072001,0.507171817030556,0.5183052362995,0.554574972294125,0.501057061983924,0.548252967823225,0.493679502692524,0.539993393807928
-970,Cane,12m,0.574200957553548,0.537171260995412,0.561723628514591,0.557047715426701,0.497275001818584,0.525582985196768,0.573311630210315,0.558872431876831,0.616717935928781,0.576536368756392,0.595007880582421,0.551404795288267,0.506793534015176,0.518200668250754,0.555682990920393,0.501100540072904,0.546726762207152,0.494380839150025,0.540238965990102
-960,Cane,12m,0.573462079510778,0.537963394545079,0.558899357281898,0.555426190973517,0.497013356055674,0.525056752998728,0.573191036111921,0.558543392706262,0.615152614850533,0.576328075672885,0.594729535264566,0.549871438145526,0.506420668102654,0.517809930383793,0.555819104373939,0.502219765864951,0.545903310220768,0.494400112344389,0.539481382680073
-950,Cane,12m,0.572250870152191,0.539545599049413,0.556461871172543,0.555072691868479,0.497875733116893,0.524481985051239,0.572763602009591,0.558300445243751,0.613057817703572,0.576129474068054,0.59494399981276,0.550334421672152,0.505802190291457,0.51800770364037,0.55668700840844,0.502557414309046,0.546106675597334,0.494308110895441,0.53833981864857
-940,Cane,12m,0.571983106447467,0.541331664069032,0.553845065925449,0.556023913549373,0.498551052788687,0.5249320429472,0.571946419945398,0.557287603236747,0.613120972167255,0.576939993963559,0.594237183017629,0.550294545635779,0.506022026200042,0.517838960768153,0.557393205993852,0.505574239550959,0.546857578822077,0.494185492232508,0.538364828712737
-930,Cane,12m,0.572010862925112,0.542423997362488,0.553172684062156,0.557137000477553,0.498193989263518,0.526330181894227,0.571739288320276,0.557355524557099,0.611224831846239,0.576843778724053,0.593478054396092,0.550589001304925,0.505477970216036,0.517859966748597,0.55858772611533,0.510106131499831,0.546261981440727,0.494243502659561,0.539010561078993
-920,Cane,12m,0.570901260018606,0.543426705863116,0.55066749780371,0.558193451658729,0.497948258082752,0.527248576800311,0.57239280109858,0.557143365681469,0.609657585406783,0.576226948416231,0.593570611217953,0.550126663014776,0.504049391383369,0.518032186887563,0.559579408407725,0.509911475717251,0.545587279819896,0.494350811819416,0.539712424781818
-910,Cane,12m,0.570256667721333,0.544440224067066,0.549498744347052,0.558302601863507,0.497473049382998,0.528941906252018,0.57174294291114,0.555452497220988,0.606197601240888,0.575320332106639,0.593998577315201,0.550474833367124,0.504377134657297,0.518358995478731,0.560632685929047,0.509846205992377,0.546861611287371,0.493914909343045,0.542808869245758
-900,Cane,12m,0.569558767688666,0.545041549078271,0.549609045966721,0.558717727674712,0.497544405806965,0.530761830744696,0.572702919938957,0.553919993014267,0.603902148079397,0.574292917544977,0.593844280750384,0.550624031484823,0.505272826716293,0.518202681982679,0.561731447957705,0.51025736221243,0.546707038337198,0.493365486948257,0.54252989667304
-890,Cane,12m,0.568875763735647,0.546163463263518,0.54959919250243,0.55883983165375,0.497301355046554,0.532127453897002,0.572843105866514,0.553216743274319,0.599737162507717,0.57409977817622,0.594800641378812,0.550561481349745,0.505093929859277,0.517312098463617,0.562377990611571,0.510326954089972,0.54614630197246,0.492779594910345,0.542073254146112
-880,Cane,12m,0.568537558278467,0.546524843841429,0.549999109831872,0.557539216081251,0.496706749617581,0.532093320103596,0.572905223075163,0.553279836746797,0.598414580353614,0.57390150848743,0.596806655428632,0.550257420099469,0.506376995366242,0.516416842470943,0.562122940866925,0.511131157975254,0.54443670817508,0.492540252755934,0.542073632434078
-870,Cane,12m,0.568295728939416,0.547252993309782,0.548273234012031,0.554593749509643,0.496339124309501,0.533417719751113,0.574021328353021,0.552129678413935,0.595122073605932,0.57317078047959,0.597118636422508,0.550241782693378,0.507443737392865,0.515774617151428,0.562295267116205,0.51297863562365,0.545349072935108,0.492348810094342,0.541715193255508
-860,Cane,12m,0.567930580785868,0.548231925528754,0.549728725201221,0.556239862976064,0.49487655805803,0.531796841634802,0.574075851905013,0.550415461695616,0.592928481391598,0.571668764309774,0.598236634611844,0.550864783447867,0.50774019708519,0.51450519830455,0.563015724351411,0.51302279829255,0.54584185044113,0.491149448849059,0.541655198494342
-850,Cane,12m,0.567522881252965,0.549460148705327,0.549481408816734,0.553510301732951,0.495086323101632,0.532307382726031,0.57251094132926,0.548464630555108,0.592185681289871,0.570196538290277,0.598980328116085,0.551270160975749,0.509302817560527,0.515240320933092,0.563670582280729,0.511992545498164,0.545480875627487,0.492294378645973,0.540471240785227
-840,Cane,12m,0.567237630999838,0.550682042274442,0.550963080334975,0.554067895840845,0.495244717145737,0.533425759478142,0.573972281598968,0.546717070403895,0.59109676155777,0.567522858587087,0.60074283908983,0.551494340179011,0.510574446132599,0.514082891723237,0.564180716256002,0.513129040950339,0.544495955199298,0.493384853887224,0.539317102153069
-830,Cane,12m,0.566835852445838,0.551517880332669,0.549900174607129,0.553465784375002,0.495425198197657,0.533356651234964,0.57634243192495,0.545447198341198,0.588985060562666,0.566784114870084,0.60215082041368,0.552230553008092,0.510756609213266,0.513131333921224,0.563938911186615,0.514202437785436,0.544978343521559,0.493828897543941,0.538129345883949
-820,Cane,12m,0.566649645264149,0.55313028230861,0.548873805227153,0.552810004056213,0.495829318468948,0.533462908363149,0.577873174471916,0.544244387749229,0.589385765859798,0.566010789503606,0.60326145807565,0.553271427380014,0.511988981847135,0.512570971710721,0.563626460283436,0.513843590604571,0.543801355373598,0.493921179665468,0.537739067509163
-810,Cane,12m,0.567532345722807,0.554866457341836,0.546670953662868,0.552121903566356,0.494738179904386,0.534100581890047,0.581886243956345,0.542898382699771,0.586971518803766,0.564881200691873,0.60528610238949,0.554327757267206,0.511710034311134,0.512646538676309,0.563592630771921,0.513132662319125,0.541375638250404,0.494354497462409,0.537476088503559
-800,Cane,12m,0.569349273393243,0.555745397411019,0.547007590637458,0.553273031256238,0.49427492967061,0.535399650731211,0.581520427572059,0.541893198102666,0.58307850974337,0.562548030793698,0.605613387471698,0.555901900959414,0.512783907160056,0.51358989344404,0.563036783733342,0.514267144283141,0.539725580891691,0.494032465260133,0.537342435236173
-790,Cane,12m,0.568933479221376,0.556514805288036,0.548772332541584,0.553587724875376,0.496164141348672,0.536286357249603,0.580589348902655,0.541198163601882,0.582173371173819,0.560636606557231,0.608670530931614,0.556409098359702,0.513602040376612,0.514693175480884,0.562494325774541,0.512055153349613,0.538631107137365,0.493807616810104,0.537766298042913
-780,Cane,12m,0.570475478004152,0.558155795540539,0.549205466536715,0.552010326446921,0.497213769210597,0.537058934038479,0.581592653203471,0.540641571786436,0.580330065885362,0.559108363009195,0.611527187121318,0.558128519151877,0.514287508155781,0.51461804776805,0.561170869050455,0.510780137375923,0.536931605297154,0.493995436003893,0.537395487049302
-770,Cane,12m,0.570994174318379,0.559559846180665,0.549713594131283,0.553673858494048,0.498767093312914,0.536472067646496,0.582141678197968,0.538371697617559,0.580287648618629,0.55730667687616,0.613937823675945,0.558662932805343,0.514938332506132,0.514966492498714,0.561330281105286,0.510420484601226,0.535385085068519,0.493476421968383,0.537512709521009
-760,Cane,12m,0.572973070523147,0.562348541725094,0.549886906539107,0.55386451401615,0.499563083980832,0.538008381020713,0.583394745480253,0.535742930474992,0.578650779085442,0.556029336878322,0.615658564988432,0.55963899080976,0.51544278273925,0.51512605754454,0.560457734360982,0.512290960575743,0.534166428080978,0.494059719395389,0.535843694593533
-750,Cane,12m,0.574499801592602,0.563456418584637,0.54950632291061,0.552990726395325,0.499973318079897,0.53860457690018,0.584171272807648,0.534014460357691,0.575814996525396,0.555070787972752,0.616086869340172,0.56052706681945,0.517722477929619,0.516257213201532,0.560199287247632,0.512573124226564,0.533596623037346,0.494528749675554,0.532794412909021
-740,Cane,12m,0.576187944588161,0.565379541528814,0.548462652756708,0.551583515113063,0.500645775312587,0.539144945654129,0.585300986234776,0.532338219655597,0.574901460007739,0.553980590700806,0.617819391390921,0.561231627595498,0.518636159328786,0.515691994743786,0.560697996776812,0.512392729214675,0.533134904603435,0.494066368066591,0.532855838741667
-730,Cane,12m,0.577476061252512,0.56647684517759,0.548685151397781,0.551151460139038,0.500374316083261,0.541147591127661,0.586632697329912,0.530442696622677,0.57431045478564,0.552738048547061,0.617955886474882,0.562068639237556,0.518914447085538,0.515570599764729,0.562971988534084,0.5124520876571,0.532972405405098,0.493899082628379,0.531372341785241
-720,Cane,12m,0.578945040564104,0.56790208748757,0.550119433440229,0.550888886790554,0.500112478018338,0.541732075368656,0.587739941183278,0.527168060083287,0.570933530575438,0.551655913996718,0.617828510364096,0.562988507572474,0.519141367552125,0.51720490824765,0.564062524987208,0.512846276076421,0.532359344432153,0.493908001013488,0.531720342175465
-710,Cane,12m,0.579096574606197,0.568015259166976,0.549229946273471,0.550845439513979,0.500665352903758,0.543142884061774,0.588128224938101,0.525616772397358,0.568591096446603,0.550873016563115,0.617611948819437,0.564018502246508,0.519737478907909,0.516030851785744,0.563782775301776,0.511468465001302,0.532572949802838,0.493573069725682,0.531399200050062
-700,Cane,12m,0.580425197205708,0.567870966117744,0.548779100916463,0.552138324887694,0.50106560758359,0.544122104730314,0.586535851678332,0.524866962408871,0.567558268156696,0.550655915331002,0.616677953485329,0.56354722728654,0.520681396865392,0.516250615455302,0.564432495292668,0.511096170538742,0.532588913800359,0.492728467460422,0.531666337134508
-690,Cane,12m,0.580287971497972,0.56739401893882,0.550835006741455,0.550229956206042,0.500886387162348,0.542922504037435,0.587133697286407,0.52390163153856,0.567512495030625,0.550942190516206,0.615008831719513,0.562904876020833,0.520440283587964,0.516285092114798,0.565368886870685,0.510457972647471,0.532108946218113,0.491709244507246,0.532097909806795
-680,Cane,12m,0.580975742503036,0.568072315988412,0.552062588987536,0.55095415998331,0.501909632902819,0.542527362884297,0.585158393977232,0.522324363311798,0.566541953633487,0.549292052593971,0.6125413485608,0.562791345584819,0.52146698816112,0.516290038169102,0.566033963075713,0.509084229885376,0.531849526282891,0.491772266219689,0.532669393330119
-670,Cane,12m,0.5827067347371,0.568578728623289,0.552763950749343,0.549539914553897,0.502423911870619,0.543313811973866,0.584542828014081,0.52124800967066,0.564800783205075,0.550451559013205,0.610791334732364,0.563744848175614,0.521862439286757,0.516657236341384,0.566012024509872,0.509480544042443,0.531472880338037,0.491753010529614,0.533347725263551
-660,Cane,12m,0.582992254389978,0.568157649036849,0.553874153775546,0.55204908326564,0.502227375190831,0.544271199964954,0.584287305123978,0.522223002880601,0.565961401572998,0.550530671800875,0.60994470860332,0.563580929062579,0.522011043434578,0.517091397073571,0.566847049468462,0.509351758479108,0.531189780088991,0.492441230671356,0.533997700823554
-650,Cane,12m,0.582953600761186,0.567760322180636,0.554527272141937,0.549415577780751,0.501865482460248,0.545722241123359,0.582133667636809,0.520033126776757,0.564795198978616,0.549599422638151,0.609041819233073,0.563880744219788,0.522048684558205,0.517381396429538,0.567457818358693,0.510216438441962,0.531098561022869,0.492547923783263,0.532820197697389
-640,Cane,12m,0.582372177170107,0.566837625988469,0.556352863741005,0.549850339786059,0.502151507421361,0.546926507145112,0.579738514037964,0.519330727175645,0.563273224611331,0.548889055652119,0.60793192106201,0.564095758098356,0.521178154722426,0.517374850905209,0.568200092995471,0.510149720733602,0.530460709099701,0.492035094419422,0.532972445382983
-630,Cane,12m,0.583458822304119,0.568333931957086,0.558726325559983,0.549708068775985,0.50144299378552,0.547868304617265,0.578559879048389,0.519234047523874,0.562537127269345,0.549362676990394,0.606700912266263,0.564388769633549,0.521678240099569,0.517576290063452,0.568173631543437,0.510136517674387,0.529323538664106,0.493002316339609,0.533549816388963
-620,Cane,12m,0.585013905330218,0.569306083074694,0.559883741254349,0.550211029649442,0.500932446193179,0.547932158162005,0.577833247353659,0.519685590491973,0.561513250820159,0.550425421464843,0.605357227078575,0.564916550084358,0.52268248780012,0.518693716172016,0.568784406804192,0.50994140236342,0.529323955681147,0.49316839803995,0.533848980293536
-610,Cane,12m,0.585225235988632,0.5694342218667,0.55942185203091,0.551204645259976,0.50038626792355,0.547695726294797,0.57693145260996,0.519199774050251,0.560567564946478,0.552283271784261,0.603981368004792,0.564539515335723,0.523170420171779,0.519378545320152,0.568499977331717,0.510466290876844,0.530104692890772,0.492646200792326,0.534211193083517
-600,Cane,12m,0.586837482398967,0.568829303715668,0.559397240912603,0.551155501326772,0.500477833497325,0.546302403720386,0.576205103856205,0.518890003877164,0.559575259106523,0.552348559339404,0.602984971298718,0.564714105806539,0.524071098303641,0.520319630403821,0.568218262688626,0.510343916019746,0.531026921832046,0.492752569202885,0.534369831789914
-590,Cane,12m,0.587754851128482,0.566930322445251,0.561373186012644,0.55203817070622,0.499276972981997,0.544382085751651,0.572809171454071,0.519307784975525,0.559764322732621,0.552358752042517,0.601469226283128,0.565328575721559,0.523885069098557,0.521366493740523,0.567000497292679,0.511372943160805,0.530183205977531,0.4934044672371,0.533634160904535
-580,Cane,12m,0.587889518290883,0.564611627199219,0.564837379433671,0.552054603508129,0.498091831870433,0.542028594841636,0.57140516823069,0.519323335960155,0.559213320699163,0.553220964676165,0.599349228161724,0.566119178417723,0.52464134899568,0.52097958229432,0.567164666301457,0.511047373008557,0.52905858941181,0.49334051868643,0.533773229046284
-570,Cane,12m,0.588159379427414,0.565303005687627,0.567426404046999,0.552760570764348,0.497012865727465,0.537698345062221,0.569864579641686,0.519541646975651,0.559721575203212,0.553981715180916,0.599699827679051,0.56668993063024,0.526061510899416,0.520522708659979,0.565365377533775,0.511347099472792,0.529399293305043,0.493770341000244,0.533239613694957
-560,Cane,12m,0.589782825178108,0.564986862173243,0.571719238299663,0.553352707944776,0.496083600074535,0.537551242709822,0.567912932946131,0.520959840962229,0.561014319136974,0.55522438625081,0.599325360874435,0.568525151341067,0.526749937127615,0.519927514972514,0.563566398742735,0.511601361872643,0.530496106257469,0.492679169594159,0.532281896763522
-550,Cane,12m,0.59077069293969,0.56332785955478,0.571259468600341,0.553116717616554,0.495314917660908,0.536060383920201,0.566515066065829,0.522745570686654,0.56169396065339,0.557038264213488,0.598205959992071,0.569128839530001,0.527962411435158,0.520674726294908,0.563094287625176,0.511288298768542,0.531980997213509,0.491989083142395,0.531149710836899
-540,Cane,12m,0.59299983785345,0.562067288748223,0.570713088829805,0.553251162468466,0.494579250683042,0.535774344640845,0.566161668215862,0.523959464087525,0.561585085743907,0.557687706578713,0.596178073801686,0.569903926645029,0.529116615301642,0.521693903154022,0.562812169675723,0.509752272366872,0.532315843837673,0.492950304021929,0.528632905172031
-530,Cane,12m,0.594042094840779,0.560275837890827,0.572718299084293,0.553387330586658,0.495234827585192,0.537202321270185,0.564345084900324,0.524048936546581,0.562262291238925,0.558723105230482,0.596246360905376,0.569702511498842,0.530415390306764,0.522858330817239,0.562498531442806,0.508669305343159,0.53315714149747,0.493970139675022,0.527371280038523
-520,Cane,12m,0.594532050033404,0.559867848649867,0.574382502326545,0.553480620404084,0.495294607623519,0.537417569001584,0.562872759509056,0.524602742704479,0.562867496026368,0.558698194635364,0.596185840058539,0.56921792523096,0.530298843293068,0.524261386977054,0.562150298496215,0.507974478715393,0.53349711494011,0.492990555042959,0.523790203225148
-510,Cane,12m,0.59517858777686,0.558790207161267,0.576636695884948,0.553037042762011,0.495992803576932,0.535666989762435,0.563999915878571,0.525188991993014,0.56381210249201,0.558444075886715,0.596144346813861,0.56920882113217,0.529655618787456,0.525004807468164,0.561508674981976,0.507079574512664,0.534986937434608,0.492533507586071,0.522924793846629
-500,Cane,12m,0.596987053855511,0.557491856388161,0.577405115718999,0.552198831821808,0.494717910113327,0.534472447690789,0.563943955892445,0.52507731530904,0.563140921898977,0.559507132204949,0.595404119763494,0.568740176799577,0.530838340060055,0.52647947336609,0.559680521706941,0.505706469344985,0.535900013882998,0.492504889137778,0.52052978447049
-490,Cane,12m,0.599084952983245,0.556648846013404,0.579134147224689,0.55231789330203,0.493720096204918,0.533495586319501,0.564348417872397,0.524877821306062,0.565688554495203,0.559755096912089,0.595935997658535,0.568520881717655,0.529853500300433,0.526665258724202,0.559118262323663,0.504150806370268,0.536725530992295,0.493508812910376,0.519534796079326
-480,Cane,12m,0.601017526265737,0.555500713049409,0.579880139432864,0.552138231297237,0.493477660922245,0.533447722510909,0.564026015306413,0.525868932921405,0.56807609513581,0.560125757891901,0.594891697598978,0.56789367789789,0.530334802118675,0.527937103582016,0.558298447417601,0.503331817985215,0.53727982123289,0.494500161115544,0.519840124368128
-470,Cane,12m,0.601847820560806,0.554479977127237,0.578013973391559,0.553309897702811,0.493134733707984,0.532549473986398,0.565732910330926,0.526721633272857,0.569729318828798,0.560911011939904,0.593165693323605,0.567786647163856,0.531006550919392,0.527138006220473,0.556917034292887,0.503019300174588,0.539226131537506,0.494472618380876,0.51898616949644
-460,Cane,12m,0.602724602076583,0.554517055153879,0.576826073977862,0.553395950610766,0.49330877576056,0.532549700905731,0.567089069030869,0.527796079047235,0.571978939409496,0.561971917609718,0.594618706651621,0.568066721325815,0.530371990275225,0.528268368634984,0.557274228928702,0.502473039436863,0.540978027154432,0.494305923307319,0.518256105061433
-450,Cane,12m,0.603641789960007,0.55424243728164,0.57614231693984,0.553372911080723,0.494023952407235,0.531258057103421,0.568898012142087,0.52597487851585,0.571773536876842,0.562806961094201,0.594484462820725,0.56913911798182,0.530580381081027,0.529514125897159,0.557112103950442,0.502610242608552,0.542324878980998,0.495758083163627,0.517593681638221
-440,Cane,12m,0.604729569794948,0.553004455345575,0.576215842080154,0.553233431749437,0.493804295880605,0.530953968502603,0.570007388023442,0.52676059434362,0.574921304319416,0.562316650328954,0.593817250831028,0.569203345708507,0.530154172837518,0.529739959364408,0.55669912912429,0.502813891121947,0.542524907655511,0.495936260886853,0.516942535845573
-430,Cane,12m,0.606805087342396,0.552300570825562,0.579439166935957,0.553876407955228,0.4923084582201,0.529652214908046,0.568334285417287,0.527420214818433,0.576932689496618,0.563111587213913,0.593366649869839,0.569366466969299,0.530170335194353,0.53019378151676,0.555999678080883,0.503574426720893,0.543842904375498,0.495523411399218,0.515978225760317
-420,Cane,12m,0.609009694958581,0.551680446073528,0.579240522312294,0.554715346023555,0.491914055943556,0.530693733547453,0.566912453080316,0.528987409535414,0.578065040974602,0.562492423376932,0.592509274472232,0.569597103438383,0.530800928784807,0.530794431278424,0.555321061393829,0.506302970312427,0.544644160478513,0.496216793962546,0.515006576722782
-410,Cane,12m,0.611127847796775,0.551369030839976,0.577525788036854,0.555603150935666,0.49230521486857,0.53108249030776,0.566045711738189,0.529357743277483,0.579072141502621,0.561521893237059,0.592640069788101,0.569937154131314,0.530570505409031,0.531457538855033,0.555220019433695,0.506053381369755,0.546566615826704,0.496087065271708,0.513716157587212
-400,Cane,12m,0.611248083122358,0.551514429681781,0.577545283968589,0.555906837028695,0.492840514139326,0.530892061423056,0.566597695540862,0.528138275266708,0.580114945736952,0.560883144331557,0.592387320119264,0.570114201960596,0.530566118145652,0.532035845101993,0.555091151388343,0.50735856221561,0.546442564608879,0.496142867228256,0.512606109902036
-390,Cane,12m,0.613960047954152,0.552635971075977,0.578595658695525,0.5561915277462,0.493083376397741,0.531889848053093,0.565814074245692,0.525923633038568,0.580963718274117,0.560666675851055,0.590779476225745,0.571355042593142,0.530587117743994,0.532402225310337,0.555836423900255,0.508864645995251,0.543636566386754,0.496132102717595,0.512022703465028
-380,Cane,12m,0.615996384335597,0.552884430427806,0.581318429575508,0.556572119425909,0.493574259423854,0.532473912735359,0.566806815129703,0.525503299105661,0.581816742116409,0.56096593393688,0.590819428206707,0.571318982226895,0.530325776608848,0.532498389705411,0.555385712900116,0.510231740484955,0.541484840188328,0.496868309425407,0.511760704553496
-370,Cane,12m,0.618856095888206,0.553826729042242,0.58151760272494,0.557532098133284,0.493722892659363,0.532573561446091,0.567723411996721,0.525120639227,0.583663312487989,0.560459812728251,0.589191546210087,0.571178713306788,0.530672890351273,0.533029588473633,0.556589880630247,0.511038164541958,0.541452822915665,0.497113502406338,0.511186113194017
-360,Cane,12m,0.619815294220307,0.554513250653143,0.581627056749551,0.557700497410181,0.494216070956442,0.532920554113393,0.568593192144076,0.524985823894076,0.584616360118597,0.56071042385395,0.587092512502522,0.571372381657538,0.530004402394854,0.534125894615668,0.556810309953538,0.511945367570286,0.543395647910213,0.497869102083237,0.510263766952428
-350,Cane,12m,0.620289119013442,0.555547226249618,0.581535060920708,0.55735287085656,0.494554699808406,0.533208553287381,0.569383862002868,0.525629908886792,0.585752423340775,0.560018417855008,0.586185566046113,0.570821367593545,0.530561654366554,0.533781157268677,0.556607337177215,0.512270457532771,0.543271169056931,0.498146190377837,0.510285986725953
-340,Cane,12m,0.621745764541031,0.554815967140546,0.58291747413941,0.556924619879378,0.495571907452261,0.531974520661778,0.570111317004773,0.525146071483287,0.587781419359243,0.560553156727677,0.585102792325369,0.569804168098466,0.529916186257302,0.534408671361931,0.5562804727493,0.512788405830099,0.541639030094279,0.498605803743842,0.510168374953372
-330,Cane,12m,0.624044133004789,0.556199542763725,0.583551503305124,0.555565584792255,0.496541735787062,0.5319748771353,0.570710227382941,0.525057799264633,0.589012526545088,0.560517046581668,0.583692738602804,0.56899503846798,0.53006573091025,0.53543018918542,0.55587062243801,0.514426597569238,0.541153724575892,0.499176685392849,0.510889213246475
-320,Cane,12m,0.624093775815524,0.556942428223607,0.584390597467296,0.554335043585118,0.496830222741012,0.533397714820865,0.572497921464196,0.52605060063465,0.587270247269718,0.561683003913722,0.582081294323419,0.568918153843064,0.530191987920243,0.536456991283762,0.553461345923054,0.515081790948687,0.541123376940607,0.499100197581241,0.511307356305132
-310,Cane,12m,0.62541257722485,0.554769040744041,0.585184343014303,0.553165702587154,0.498033295735284,0.532652392149814,0.573864046478186,0.526320715597453,0.589551653713125,0.563168906596408,0.581542558756008,0.56824676999853,0.529867394123825,0.536511532804311,0.551213470209686,0.515779571629208,0.540840614761879,0.497913806964807,0.512557303458854
-300,Cane,12m,0.627728155591516,0.554646604007715,0.584685410232895,0.551528672417304,0.498903864862029,0.532721417181097,0.575697671137147,0.525905237646636,0.589759945879033,0.56436733956224,0.580637135143897,0.567664572694885,0.531093846571559,0.535203062479859,0.550790038545612,0.515885711119674,0.540165799449339,0.496378246724035,0.513219881121838
-290,Cane,12m,0.628415830785599,0.55222066854421,0.58597584272408,0.550280083970087,0.500306646373421,0.532919185626206,0.57532603326468,0.527952234336362,0.591824760381372,0.565393857737333,0.580405324110406,0.567315488946602,0.530975830180853,0.533625235796841,0.548591399504904,0.515559967872011,0.540596718352433,0.494325364740878,0.512623312104931
-280,Cane,12m,0.630179587890354,0.552052033246956,0.583409466552818,0.549182747676621,0.499708636474071,0.531466626523053,0.573116887124284,0.53028084866998,0.592030896190119,0.566633089130351,0.577947463693609,0.566889856608667,0.531037693492919,0.533934920525438,0.548037125225874,0.515821409018178,0.542020880087995,0.494008664991664,0.513410989000242
-270,Cane,12m,0.631955586262121,0.552486888268262,0.585126868038169,0.548195353435688,0.500246162912397,0.531130379177727,0.572388834058226,0.531722506606579,0.590236453828154,0.567116583461659,0.575354977334988,0.566606453451413,0.530419931410471,0.533422048161361,0.547517147674979,0.516219009159535,0.541937431029424,0.494676953695008,0.513949794550699
-260,Cane,12m,0.632101797029601,0.551954936821085,0.586057033479382,0.545117977104767,0.499277555424554,0.529303677566236,0.57405989507726,0.533080174986054,0.58971128932508,0.567935684114696,0.57591928732853,0.566311810068337,0.529726303215499,0.533270674314933,0.547141180379348,0.515337095304047,0.541803326286736,0.495518872072413,0.513577087280328
-250,Cane,12m,0.633747379518,0.552461585469217,0.584812570644679,0.5454242218013,0.499560944194305,0.528004562632118,0.574101232301077,0.532541493754577,0.589774453810126,0.568144343658148,0.576101579074723,0.566294495869288,0.530473649874359,0.533971338764199,0.546856699481095,0.514181806827097,0.541100456712725,0.495329893046771,0.512869852183154
-240,Cane,12m,0.632746671738334,0.551767423229035,0.583057440582452,0.545164188060276,0.499911113318034,0.52763865799117,0.574593476841486,0.532365331307009,0.588938000741202,0.56898684401791,0.574739171128974,0.566122294771376,0.530327861065744,0.534789476479644,0.546421262022285,0.512522779466817,0.541002789311989,0.494830870727417,0.512703922080743
-230,Cane,12m,0.634304753013237,0.55199819523604,0.580686173460808,0.543625063927791,0.499600420599408,0.528301333567874,0.57553585405884,0.534168448310848,0.587281868729525,0.57002640344789,0.575055337090186,0.566809780803778,0.529792345847474,0.535607409236395,0.546183257464727,0.512445372967506,0.540570142152423,0.495451860566618,0.512943399019085
-220,Cane,12m,0.6353116825232,0.552001700520298,0.580967938650323,0.542699742349257,0.499953931878574,0.529308816219708,0.578054861907258,0.536191573812578,0.586086218048461,0.571562842325558,0.575582756163347,0.566649432290964,0.530288404323561,0.534901386995391,0.545816223732836,0.513433410594622,0.539891923875853,0.496062718454816,0.514135705879218
-210,Cane,12m,0.635498475733911,0.550320530562628,0.581557197379933,0.542895919491231,0.499114766923651,0.527440567773374,0.577319061574882,0.537315900030445,0.585798693866272,0.571801291418119,0.576137583355758,0.566800964284992,0.52977417857741,0.534570294243121,0.54543049434031,0.513320788082595,0.541434218277971,0.495537391688232,0.51499549867243
-200,Cane,12m,0.635421579709135,0.550518375001946,0.583297582469834,0.5434782680134,0.498649833910778,0.5271980578814,0.580451024084566,0.537655009877104,0.583692613088021,0.572598265124873,0.576663195371374,0.566942969297608,0.530957365689066,0.534221623813001,0.545002007251663,0.513041740216398,0.539905992290547,0.49464990351945,0.51520501085133
-190,Cane,12m,0.63524699425951,0.550877498483146,0.583121124125531,0.541607647254718,0.498383693956633,0.526771248019803,0.58353527229497,0.538891275729838,0.582865215950941,0.573436466892637,0.57730831327142,0.566931072697844,0.530310367726838,0.534958017115421,0.544601071801476,0.512263345890116,0.536609759131539,0.495652560388725,0.515682414660651
-180,Cane,12m,0.634935881527287,0.550109462652811,0.58016475857721,0.53937017290085,0.497119519653353,0.526898429524117,0.58286942295783,0.54012854812596,0.581947413850068,0.574408899808847,0.577166584189216,0.567146881729483,0.531376920017415,0.53618729453584,0.544235873980622,0.513266278996037,0.535387312085516,0.495737209420547,0.516856038318188
-170,Cane,12m,0.634574019168998,0.549275896281102,0.578977256746052,0.539549556206677,0.495864002340781,0.526412907372537,0.583161563685947,0.54089993406187,0.580393242488855,0.57526131202017,0.577818516429417,0.567490397433916,0.531193207634162,0.538306187395593,0.543924339392674,0.513800055784495,0.535568893621174,0.496791278590227,0.518335282712574
-160,Cane,12m,0.634035527963116,0.549479387269011,0.579751318277343,0.539651371518419,0.49591666398886,0.526953383338214,0.585187774776909,0.540969038361343,0.578362357964483,0.575905939852166,0.579413225711795,0.567524236586213,0.530980928179363,0.539466491318152,0.542819386739849,0.515340677408985,0.537137907500751,0.497509672058607,0.518092618071102
-150,Cane,12m,0.633376476307977,0.549338175756145,0.57732175400241,0.54118739720084,0.495155491888348,0.528186820522431,0.58601922330951,0.541086776061271,0.575704037584907,0.577585709047029,0.580017400852918,0.567831736112116,0.530284684331468,0.539531229270813,0.54290493378862,0.515526430188849,0.536745428384396,0.498151535890607,0.518329257949948
-140,Cane,12m,0.632792245584026,0.550538594121503,0.577521232452777,0.542728887362824,0.493949133692008,0.527884204914379,0.589179751098453,0.541643297189567,0.573065426500724,0.578588514684481,0.579827591466075,0.567810191676361,0.529978386633609,0.539869722675266,0.543171379405525,0.51553122362618,0.532621383731937,0.497229068356746,0.519025892277086
-130,Cane,12m,0.632194685571636,0.55115988436262,0.575476185982836,0.543023409997725,0.493401232365283,0.528205977232285,0.590404042563194,0.543272792391509,0.570626610650085,0.579109038304422,0.579004439522897,0.567976934026108,0.529579398040597,0.538315790922748,0.542621712681337,0.51555142643872,0.532380546351798,0.496558502262191,0.520314515952378
-120,Cane,12m,0.631489673148444,0.552637341703757,0.574954985419671,0.544798838149316,0.493569373014139,0.527781597729507,0.592315938958551,0.543264311192643,0.57050623340014,0.579358712080945,0.578228739257776,0.567729258774248,0.528943185766605,0.538065791308222,0.541688958516561,0.516759547365208,0.532021029189873,0.497279490474156,0.522416235657821
-110,Cane,12m,0.631131513048281,0.555379691778984,0.576162829397345,0.546441794439221,0.493650979766455,0.527711940819296,0.593558840304606,0.544945041287829,0.570293695487671,0.580530966750886,0.578096317938561,0.56856436070376,0.527818364392529,0.537858533286961,0.540457829416328,0.517884104175816,0.531323585788929,0.497846303151606,0.524772593017133
-100,Cane,12m,0.631383306714624,0.554756675509248,0.576072069848475,0.545080012423728,0.493881781751567,0.527345265491625,0.592269677545831,0.544891963686884,0.570717675483192,0.58165685670165,0.576726972327964,0.568009703069071,0.527665830213169,0.538088563173344,0.538854891770068,0.519329959971813,0.530266595617784,0.497368051866383,0.525064650440281
-90,Cane,12m,0.631487461321809,0.555591170623544,0.577633034202556,0.543488867093676,0.494482843386824,0.528569871561957,0.593604815312076,0.544464440983137,0.571052309773321,0.582269527033279,0.577890345945669,0.567737617839801,0.527269332986233,0.537949192232213,0.539947084009905,0.520067963365094,0.530885371114321,0.49692673642503,0.525271280113223
-80,Cane,12m,0.630305690173516,0.556722869678943,0.578489131066426,0.542459568669326,0.494466278887336,0.527206848614451,0.593287454942965,0.544816379906792,0.572033238065861,0.581757064433348,0.577788167286995,0.569395773628251,0.525618210057497,0.536940890487743,0.539958405027563,0.520220894047967,0.528705637577454,0.49639760338586,0.52552826887354
-70,Cane,12m,0.629643298977343,0.558327680028962,0.579035098469654,0.541558191268048,0.495740721058996,0.527072355251632,0.594310210385429,0.545003508755182,0.570831084720157,0.581754463582894,0.576360194929517,0.571079392805576,0.525208328756798,0.537289530952221,0.54013392601646,0.520095789316205,0.528596541598824,0.495535470486666,0.527195610269451
-60,Cane,12m,0.629723447671791,0.560361806970629,0.58320397373725,0.541872001821441,0.495473332434144,0.529024828975914,0.595363601174857,0.545320559938964,0.569858878630385,0.582475810372481,0.575624231288255,0.571737822810972,0.525421540244633,0.537137908654106,0.540452930522013,0.521954913684767,0.529136916469878,0.495290645614057,0.527544154623254
-50,Cane,12m,0.629621762828838,0.561524514745057,0.586019254315382,0.542770890677661,0.497297970139959,0.527910737692357,0.595672730219957,0.546059335940633,0.56946718579045,0.582433960780701,0.576559921672648,0.571569832114953,0.524618800848889,0.536915590567269,0.540412752560393,0.524288806026554,0.527243963486551,0.49491663044978,0.528445893722082
-40,Cane,12m,0.628805614926407,0.561992568525619,0.587183907348873,0.543113933727615,0.497308760640873,0.528733755213713,0.595148084041222,0.546117869000564,0.568143420447273,0.582188950921731,0.575352534504829,0.572158451348151,0.523783030433686,0.536377753548829,0.540482513180697,0.524925823683123,0.527377972412847,0.494513399639264,0.528220512169919
-30,Cane,12m,0.627621682271877,0.5624987312634,0.587882448397708,0.543650155453771,0.497443874412147,0.529412909821234,0.59509261693072,0.545828599676268,0.566822804832025,0.582042094211754,0.576341875427511,0.573413464699056,0.522641834629297,0.536428327580351,0.540135776267513,0.523392348629015,0.527355523883247,0.494298394782908,0.527906413311598
-20,Cane,12m,0.626914192858673,0.565933661446005,0.588855215385608,0.543267031026048,0.498377756369647,0.530114047539853,0.59254400493738,0.545634882143358,0.566234523316432,0.58206071368429,0.575190574085664,0.573449858867365,0.521043651000976,0.535679024031033,0.539929590284877,0.52083333542472,0.526640943490461,0.494523604407561,0.52691547889484
-10,Cane,12m,0.625840229070893,0.565805321879584,0.590595748469777,0.541976093402484,0.499176936829404,0.530762680966667,0.592830124285524,0.545059961866569,0.56499478570591,0.582066649634791,0.573129920424787,0.573189679138399,0.52019015270281,0.535239856121032,0.539859670895657,0.520471047192925,0.526553601784171,0.494548916844319,0.526082842829181
0,Cane,12m,0.624112662628477,0.569122163432052,0.59263867883681,0.540802645229165,0.499858088019523,0.530236838289269,0.592742044438582,0.544341627015399,0.564616210132612,0.582126404067125,0.573032182195134,0.574181217773383,0.519881634344596,0.534760018881697,0.539829969604927,0.519853717580206,0.524206992915758,0.493304563415932,0.527847357134647
10,Cane,12m,0.622923541991755,0.569956422229885,0.593133964171297,0.541452105067275,0.500412932103125,0.52978592470993,0.59243589222197,0.543459413324645,0.562329197689499,0.581622272799825,0.571840553478676,0.574798913665447,0.521412781253498,0.534520962997915,0.540181445917142,0.520355523889821,0.522211422212703,0.49348195212192,0.526746292972775
20,Cane,12m,0.621598955953403,0.572045977193944,0.594435251404513,0.540134858321308,0.500695774463806,0.531066246911057,0.591916651511048,0.54253118471369,0.562485421433088,0.580893667337849,0.570568834323393,0.573517824444599,0.520368548599961,0.534334684142439,0.540272818892732,0.520204138116434,0.52133926637436,0.492524754599433,0.526687692319238
30,Cane,12m,0.62099555378648,0.572289750760357,0.594875801906966,0.537971562966232,0.501129786591992,0.531967851861654,0.589290133478229,0.542873623349204,0.5629343344829,0.579933676607445,0.569556416386019,0.572112465473915,0.519253112192764,0.533918477735348,0.540552360254909,0.520984148775956,0.521053555365963,0.491499421750308,0.524212906501064
40,Cane,12m,0.619748149789243,0.575987214156476,0.596699890859312,0.536057288680527,0.501689958074727,0.531830781002524,0.589890834884382,0.542841587902619,0.563195098731915,0.580703013949823,0.569720707309575,0.571315583888728,0.518397259611492,0.533287669283957,0.540289497389851,0.522151136343691,0.521424902669706,0.491626051758966,0.522155269687703
50,Cane,12m,0.618314532257636,0.577334208223809,0.597538844400453,0.535633087878329,0.502148745385946,0.533026883522538,0.587363719147675,0.542035630810385,0.562655936522966,0.580579969996436,0.568492511904294,0.572903018833825,0.519705875159256,0.532624413454951,0.539097343127096,0.523930638433093,0.521582966053168,0.491885839726774,0.520087876341319
60,Cane,12m,0.617047173614328,0.576879655198091,0.597236318095361,0.536625782794612,0.502225938240034,0.534267998694297,0.583816002814199,0.54176745996381,0.561547148745918,0.579681420588956,0.567360868062857,0.574455779261046,0.519788948115658,0.531849232050498,0.537426788085308,0.524700185068771,0.521849881935856,0.491062941282762,0.519461852354402
70,Cane,12m,0.615861622453678,0.579260400876341,0.597657477277951,0.538630117312681,0.502282705430248,0.534170972070784,0.582314699591449,0.540969647238407,0.561932463476744,0.579771797218591,0.568716560653887,0.574031597072359,0.518778115116733,0.531872521317179,0.536633321000608,0.525030112811009,0.522221948751077,0.490295930594631,0.519048071089873
80,Cane,12m,0.614972063120248,0.581696903593528,0.597954474876477,0.537543810302547,0.501936753772994,0.534305093403862,0.578938382751193,0.540031790381049,0.560045711277292,0.578783391600555,0.569373513184116,0.57347083024179,0.517228917114408,0.53127121169692,0.537120329965686,0.52503624974283,0.520831476124619,0.489725624439241,0.51893066919151
90,Cane,12m,0.614618677793561,0.582548491700794,0.598251525627942,0.536411930081666,0.502283346123916,0.535545331478468,0.576870466369143,0.540295373248802,0.559321553266964,0.578168117551252,0.570595753125489,0.573818286718568,0.516511725833895,0.532284114909166,0.537966013664436,0.523809233111483,0.520913422261128,0.489262922184179,0.518331359094769
100,Cane,12m,0.614600129425548,0.583991773340082,0.598053789786618,0.535873068351754,0.501852169201789,0.534315042608365,0.573818234649915,0.53934804606672,0.560114795254901,0.576581007952058,0.572823387493643,0.573260215741274,0.515733659359962,0.531467280622831,0.538615259085793,0.52350081707484,0.520617829246617,0.489220466767192,0.518759137741752
110,Cane,12m,0.613917627476959,0.584646925496247,0.597015910261059,0.536554037702533,0.501373708232224,0.533905216062349,0.572044643750471,0.539402122137046,0.561185847062236,0.574564858400101,0.57462681311996,0.573478044120373,0.514977777097593,0.529917051993529,0.538562385257097,0.523717752111112,0.520199143237184,0.490121017019974,0.518768727752352
120,Cane,12m,0.611745736973231,0.584640961568027,0.596640638643606,0.53705548382068,0.501373224629106,0.533160289449308,0.570407238802736,0.538973428232768,0.561024976412476,0.572974680231151,0.575400335806281,0.574172300618093,0.512079564144717,0.529471464691233,0.539197263461703,0.524433493988607,0.519617072229117,0.489765923091043,0.518625254580377
130,Cane,12m,0.612411417341379,0.58474167672099,0.595562017341374,0.535833560071757,0.50036640303565,0.533580045758411,0.569697872548117,0.538585360112776,0.562153826130902,0.572791515957922,0.575250973775125,0.575065355581719,0.511317760444502,0.529555841980633,0.538610681080703,0.525512759587803,0.519454411353409,0.488431142764374,0.517464186754426
140,Cane,12m,0.611754185292226,0.585044207519729,0.594016346784529,0.534337270666118,0.499879264853545,0.535255172989785,0.570491439452665,0.540252158464635,0.561100706248312,0.572486624061417,0.576726397923729,0.575015796803636,0.510057952387885,0.528638434266853,0.537944399544536,0.525805148968058,0.520081690273516,0.487120634310133,0.51792443725212
150,Cane,12m,0.609851992597904,0.586835179725826,0.592105202075023,0.533575125931051,0.499394819514277,0.535887880005135,0.567672244493741,0.54017454446046,0.559757913317241,0.572334331069274,0.577417417183273,0.575099311652924,0.511382598806076,0.529317786816191,0.536825516788507,0.526700937914841,0.52147732726983,0.486045986619428,0.519911628955124
160,Cane,12m,0.610170039434098,0.585229897230898,0.590594889687206,0.533795096710139,0.498688801598554,0.536904226866551,0.564653846653087,0.53965704022601,0.557579262427231,0.573643576205495,0.578153955714235,0.57537536629583,0.511184731723843,0.529389013493647,0.536485367242447,0.526919555732164,0.520670182479685,0.485026776055181,0.521426815467045
170,Cane,12m,0.609797441453575,0.586944123480771,0.590326449198912,0.534200422921187,0.497901598392381,0.536443010488542,0.565836962171454,0.540534625696045,0.557954676336444,0.57453717898253,0.578494551328698,0.575696352368784,0.510267468496521,0.529211765639043,0.535510272583062,0.527672235963022,0.520779715944187,0.484325662439573,0.520953601819462
180,Cane,12m,0.608045492708827,0.588865572437913,0.590272577079891,0.534570863377023,0.49703203067112,0.536720681422714,0.565260255275189,0.541265586118998,0.557365947046446,0.573837063492511,0.580149670917787,0.575656363260685,0.509244520244751,0.528765947939004,0.534773065530547,0.528071552145067,0.521812575173487,0.483911578733931,0.520320589890384
190,Cane,12m,0.606259731397245,0.588972865356222,0.59127897058999,0.532455825002537,0.495860869402694,0.53598215820271,0.563514730604137,0.541142489290371,0.557600747420138,0.574672494854847,0.581247083698104,0.575079269937824,0.509067123794708,0.528494492247205,0.534354530407782,0.527745671471481,0.52181836361892,0.483588597192854,0.520282214607273
200,Cane,12m,0.605998763745864,0.588863667654589,0.592717965296146,0.5322178165484,0.495762618811029,0.536705812193607,0.561170679529147,0.541032895306152,0.556676760234252,0.575662544458738,0.581966018502309,0.574341751400179,0.508881565570144,0.529843644882051,0.533470265539035,0.528178388939979,0.521943468699881,0.48387313385629,0.520564385810485
210,Cane,12m,0.606096525752347,0.585936375722718,0.592302123242008,0.528851356853007,0.495045042191737,0.536559966271034,0.562170208866073,0.541340139901317,0.557595274846146,0.576372419575345,0.580505641976262,0.573971365464561,0.507452789464302,0.530350083269359,0.532168781437546,0.527926153498242,0.523444635657323,0.48379935317005,0.520881299018265
220,Cane,12m,0.60623346328639,0.585566933425326,0.590401670865329,0.527424615025437,0.494278911681651,0.535707452898041,0.563644011059759,0.53978888066444,0.557557157473578,0.575540389533671,0.580516445985655,0.574066363020361,0.505684390465433,0.531476553757153,0.531785894518804,0.529255332891587,0.52492846276965,0.484349465983597,0.52111210877373
230,Cane,12m,0.604824196204529,0.585177606566153,0.592856084619071,0.527430357551827,0.493704663901725,0.535586161686972,0.564614368326969,0.539640715065609,0.559911438731001,0.574423179089815,0.579207681992532,0.57309013503011,0.505361641643533,0.531136450839759,0.530912336131945,0.529575442463892,0.52589845931381,0.485221604792061,0.521500645548816
240,Cane,12m,0.603130799955634,0.585056254045984,0.596713346148715,0.525303635879566,0.493640982310113,0.534718928698602,0.563180857670777,0.539614642970329,0.562397920023272,0.573622526050939,0.57718827060713,0.572983189741265,0.504767689169241,0.530620326752375,0.529818477002832,0.53079579008221,0.523737486571862,0.486056472524387,0.522422635268197
250,Cane,12m,0.601604414334511,0.58481670438906,0.597724776735302,0.524513758806418,0.493373020121017,0.535423691802296,0.564488539570255,0.539425485730823,0.563117069635101,0.574074483994714,0.578567700110389,0.573566611351249,0.504106004085339,0.530210977399487,0.527603480562186,0.531980426902112,0.523807261795412,0.486590911971323,0.52214481558841
260,Cane,12m,0.600068519545773,0.584461430594576,0.598058721673287,0.524163420663407,0.492922790215295,0.535733294258253,0.562998741114457,0.539082501390576,0.564380660442103,0.574286475104579,0.578566339592152,0.573319374249397,0.50329433904042,0.529089464834899,0.526748254557129,0.532402891213675,0.523740075320269,0.487286804031394,0.521361167133925
270,Cane,12m,0.598965467789495,0.584173984576039,0.598673536563026,0.523399922448709,0.491594034787214,0.535850088309912,0.561700420341515,0.539400096720393,0.565556088310246,0.573416468511125,0.575785658353727,0.572923438874153,0.502670844571673,0.528199226121066,0.525979039198141,0.533814085548582,0.523490930715117,0.487998932644238,0.52083221703512
280,Cane,12m,0.598262128103649,0.583105011243743,0.599264075405035,0.522694635654185,0.491815923974758,0.535470274615736,0.560387477763904,0.539591369587699,0.565281744705884,0.571369820612979,0.573571865927377,0.573608647160126,0.500574014627276,0.528574407263807,0.524737892400852,0.535101477671716,0.522740856785852,0.488076017933527,0.520797962177197
290,Cane,12m,0.597621476812805,0.582007082568173,0.600227682254156,0.522415087051237,0.492503841771872,0.534556345475562,0.560774382479748,0.53986792549125,0.565010032329222,0.570147370893,0.572934884177113,0.574287907192669,0.498468010270466,0.529257823745299,0.523290465631559,0.535303136981558,0.523743008366429,0.488749011357625,0.520923993643018
300,Cane,12m,0.596956379483273,0.58061680752821,0.601553861702067,0.521907959062206,0.492203725129531,0.53338512660512,0.562407173223748,0.539423891916368,0.567740987513604,0.569687092552293,0.572497747054591,0.574955317503301,0.496635543782119,0.52823946538814,0.520842087487754,0.535321173040136,0.523479361820685,0.489466389642761,0.521344898113403
310,Cane,12m,0.595791439151128,0.578937161610223,0.601899872399888,0.521292040350965,0.491434983518994,0.53243448182319,0.560924156081002,0.539013387262429,0.569638095308598,0.567624975116729,0.572250105955736,0.573837590138877,0.496769408525217,0.526394444354389,0.520075816913695,0.535424348027704,0.523660650317884,0.490160718475316,0.521943951721086
320,Cane,12m,0.595012208465817,0.577170379871294,0.603002341298974,0.520460617181764,0.490719876563387,0.532464884772768,0.560557737585062,0.538719252844578,0.571103426932093,0.56914070399228,0.571671592282953,0.57422330499777,0.49687229085497,0.526326800612205,0.518694825497446,0.535301976784759,0.5231615135184,0.490567198321127,0.520766397001613
330,Cane,12m,0.593648416165876,0.575481192715709,0.603184885815539,0.521962339107162,0.490100487228535,0.532829679528175,0.563115609596334,0.539713641301802,0.574064486802657,0.57053733853095,0.570811031745186,0.5744105654483,0.496016054781844,0.525398112525545,0.518146182502697,0.535697680423753,0.523008926066533,0.490284942048536,0.520161492982648
340,Cane,12m,0.59273771705691,0.575181943788716,0.60337689585994,0.522106520150789,0.489076084579559,0.533170030051008,0.562396295975583,0.538954871093988,0.574946112864246,0.570288084349712,0.56999494517881,0.574349349139559,0.495448501362439,0.524643431088261,0.517227158168801,0.535922631578109,0.523770518471584,0.491340063829086,0.519823606896583
350,Cane,12m,0.591304824891092,0.573191387713388,0.604674870760698,0.522184658441695,0.489264486622587,0.532634033913073,0.561248320478374,0.539538208700752,0.574354850586843,0.570281002154395,0.568872906934581,0.574557477132827,0.495149602872057,0.523748378209265,0.517378000228692,0.536804286001967,0.524725660640241,0.491787617356064,0.518649308323685
360,Cane,12m,0.590988690293627,0.571146346386439,0.604645609860794,0.522459968833689,0.489495123091337,0.53346706685239,0.560232130708112,0.5405427909208,0.576475925828523,0.570547416290548,0.569026780183454,0.57536761683148,0.495363319847898,0.523612009142022,0.517243758891447,0.53678166182074,0.525027642096102,0.491896936413158,0.518099776197809
370,Cane,12m,0.590191537768246,0.570453441889309,0.604336591694985,0.522841228733461,0.489096701639862,0.532587606749587,0.559526743754352,0.54121611445676,0.579620911511735,0.571064860408757,0.569243881042739,0.574934705266974,0.496526786700528,0.523013627500779,0.517363899713221,0.536395329154615,0.525601955180561,0.492442820191876,0.517068076553618
380,Cane,12m,0.589351867191042,0.569141707753829,0.60560138978507,0.521681521257658,0.488846701319675,0.532453918702194,0.559285316720679,0.542170794982372,0.579417506875123,0.57104116896221,0.570131753456337,0.574789761593255,0.496678407800198,0.521222490774497,0.516946711342898,0.536292918427077,0.525215652908009,0.492297674234774,0.516590356328632
390,Cane,12m,0.587847643588306,0.566680573096276,0.605146329837871,0.521303457123254,0.488569350541839,0.531820619064315,0.557405143873457,0.542314031902731,0.578608367530233,0.570700690476017,0.570187678364378,0.575035793726948,0.497858406659817,0.519419740425134,0.515476766908535,0.535867110602423,0.524624959166736,0.492349060386322,0.516579550027244
400,Cane,12m,0.586999032486386,0.56524971412018,0.609300889200832,0.522062682981534,0.488304893196908,0.531550546804518,0.556129870224556,0.543346161668924,0.577490175007775,0.57140278255429,0.571975580355031,0.575150103832734,0.499354630245179,0.518830215457676,0.514742948851713,0.536532194050699,0.524949938825034,0.492978449859197,0.516888210025527
410,Cane,12m,0.585294291110543,0.56428022707904,0.60955348734206,0.522036105296817,0.487651859562937,0.531336976007144,0.554738034526323,0.54442567575744,0.576332369570591,0.571454867357969,0.574482304190343,0.574614141203361,0.499944789836523,0.518899675693014,0.514225765047592,0.534479107306591,0.525466293706416,0.493886481115407,0.516544685459163
420,Cane,12m,0.583605126255605,0.563364662578128,0.607567052932632,0.520368271504252,0.487808713996145,0.530599321503303,0.553053977303631,0.545620695176869,0.577559019135322,0.570861898500246,0.57665038376569,0.573598404343499,0.499660440624931,0.518280643895557,0.514732215443635,0.533781303074858,0.526017127941606,0.494827246527735,0.514868379989011
430,Cane,12m,0.582196071343139,0.562431743030204,0.610674357643837,0.519070164657526,0.487753511263333,0.529667942187054,0.551143110053289,0.546944746570647,0.580075630950359,0.570764609654366,0.576887473025814,0.573429133878892,0.499298971869311,0.517974848326417,0.513846414971533,0.534933858775887,0.52658185455439,0.494252830432486,0.513525446253677
440,Cane,12m,0.582415981902044,0.56217131031575,0.612737088345033,0.518212914650332,0.487892013512788,0.529452491566254,0.549534682626346,0.547715298691297,0.581865708392062,0.570919130132031,0.577516770234383,0.572715305657494,0.499169701352372,0.517423289371562,0.512932690550281,0.532840852834115,0.526590254464877,0.493794361197954,0.513808005386603
450,Cane,12m,0.58092604784537,0.561062994061739,0.609214123938862,0.518623936249941,0.487850978512121,0.529280552771758,0.546910058615669,0.549134276527673,0.580038709760856,0.568903319411144,0.579298780754354,0.572672294165538,0.498925275256301,0.515886355180653,0.512615571188908,0.533750368352448,0.526400912238583,0.493891469657062,0.513966427827931
460,Cane,12m,0.579149837853633,0.559136959912504,0.613249706680561,0.517862490232043,0.48781608807612,0.529319610528873,0.546756094389448,0.550667034297088,0.579730548959077,0.567947300168382,0.581125830955116,0.574456316625543,0.498781841053919,0.51554876859242,0.512558521813884,0.53453172989702,0.52688832772697,0.494337098024672,0.513820476762426
470,Cane,12m,0.577874009209397,0.557653030208779,0.613436901265597,0.518154350723336,0.488006787284187,0.52989235920523,0.54743924965112,0.551104775859286,0.581663500471976,0.566830534624493,0.582481831881205,0.574341728768194,0.498713296758301,0.514704976983531,0.512091007820004,0.534918305185179,0.526810385000432,0.494729749302025,0.515002969857688
480,Cane,12m,0.576405988964879,0.554742160699399,0.613903688641516,0.518709773227575,0.488178514015915,0.529157579820685,0.548375790259075,0.551898364021284,0.581137454363198,0.565731581141203,0.583715113858726,0.574459717849908,0.498878231471583,0.514280599525925,0.51248557726745,0.536005234823039,0.525663911276817,0.496259383257504,0.516177185113479
490,Cane,12m,0.576164606745948,0.552928738101271,0.616566035755681,0.519088507943086,0.487770448596592,0.527875455418249,0.547547890565427,0.551715536564651,0.583225733177889,0.564393888420095,0.585410285167188,0.574389692650883,0.499264002740268,0.512781096770449,0.512435080538037,0.535917288135844,0.527138306423019,0.496689056330938,0.516523142677942
500,Cane,12m,0.575469437934067,0.552942333348599,0.616920422926339,0.520984509413665,0.487648944364211,0.526403530872791,0.546687297511616,0.552816958912968,0.58499074124189,0.56329882664366,0.587361898551266,0.574223751402785,0.499898511822555,0.511893969192644,0.512258937128775,0.533643310100615,0.527621274975621,0.49683189919304,0.516422881964726
510,Cane,12m,0.57502357298559,0.550313069057974,0.616308545634053,0.520560975250389,0.487741464870456,0.52556557487674,0.548081079585006,0.551775104075723,0.585760348784704,0.562187453712204,0.587497581778694,0.573903389638278,0.50057488321792,0.51120163943264,0.511937427672964,0.53312411346316,0.527677044405983,0.497417508313669,0.516148727817955
520,Cane,12m,0.57576189060962,0.548642986445272,0.616537975181273,0.52085924564708,0.488685353358696,0.52393151754556,0.549568665831933,0.552555188894785,0.587282433924325,0.561491170362012,0.586594760354969,0.574249941791652,0.501530463738798,0.510479475072161,0.511645516916455,0.533547849348159,0.527332170899476,0.498233801591084,0.517602099278695
530,Cane,12m,0.574753189814059,0.547949960918323,0.615124378126145,0.519383673830678,0.488201155096251,0.524629689873722,0.551242057890026,0.55340579903284,0.589733833673201,0.561045730933086,0.586536508774415,0.573755812819293,0.502060316639509,0.509667473592194,0.511200827359237,0.531761061990345,0.527228346356811,0.497525045132797,0.519138101338035
540,Cane,12m,0.573442438110198,0.547693834113637,0.617219892329204,0.517432306756126,0.487737210971938,0.52636741664883,0.550884937615387,0.554073270226747,0.589563315351419,0.560812643152139,0.585717259176665,0.573920890600818,0.501870524554774,0.508428878031772,0.510718372556756,0.530189819251256,0.527487029609672,0.497919391799607,0.519068997772253
550,Cane,12m,0.574121074134511,0.547185459063696,0.61767428692278,0.5167563046755,0.488071650209182,0.526139436007148,0.550187305119169,0.554305114947284,0.589791521068379,0.560774146335835,0.587088426453277,0.574305240297338,0.501845270967818,0.507963060454024,0.511924417248095,0.53056514401603,0.527216315916261,0.497481468987717,0.518942132883476
560,Cane,12m,0.572354640139628,0.546818883650052,0.617374797135369,0.515797662448575,0.487489421135057,0.526783258620563,0.549414163172889,0.554691715868054,0.591679531326222,0.560851322784631,0.587611470514502,0.574508796974806,0.501795786018228,0.507141811117279,0.514589653031633,0.531228278517744,0.52859948832563,0.497171018708082,0.518686580508696
570,Cane,12m,0.57163134388875,0.545779456850016,0.618342966964419,0.514518576595208,0.487273587281857,0.527560870531579,0.548924035481881,0.554532091095914,0.593408871383941,0.561117283160726,0.588948987172851,0.575267116023448,0.501856636155215,0.506393493317213,0.514742649262298,0.53116474699924,0.527156334578961,0.498240658661562,0.51862434970932
580,Cane,12m,0.570940108400298,0.545990724048178,0.619144104769201,0.513620975076803,0.488328816846398,0.526964646127592,0.548310770928204,0.554316074532112,0.593316968055791,0.561483306805219,0.589160236291848,0.575528118613477,0.502519426135216,0.506705207658573,0.515092584762235,0.530008536368464,0.526502663367292,0.498653170682067,0.520905101777179
590,Cane,12m,0.57038010034135,0.543919948979294,0.617794710983873,0.513017257425066,0.488955333141389,0.527623699752135,0.549394220978478,0.553886622366843,0.593679228433377,0.560082998894334,0.589051096904547,0.576341025351574,0.503789305515901,0.506323270179122,0.515761931755368,0.529102592165582,0.525767356660459,0.498860357865564,0.522078093443881
600,Cane,12m,0.569367226826918,0.54356518164862,0.615558173547969,0.51259680062682,0.488644915169188,0.527405437397063,0.548129896906456,0.553453057156798,0.595797302196604,0.558344997682454,0.589237092054128,0.577040903823044,0.504224012303324,0.505805684252255,0.517411342703365,0.529199786974415,0.524294698859812,0.498981618851087,0.52291044705429
610,Cane,12m,0.569253500251408,0.541925699218888,0.614230512585286,0.510892102453207,0.488553214655784,0.527251603112189,0.544808422972188,0.552928501792362,0.595403044379583,0.556931783443287,0.590144347967252,0.576143537017773,0.504162838997863,0.505461812279903,0.519070566679392,0.529625168517286,0.524412444817628,0.499080680313767,0.524704468011916
620,Cane,12m,0.568676122970257,0.542363639050278,0.611437613173611,0.510231002233247,0.48857162428771,0.52590655640121,0.544518946544007,0.552334819865138,0.595374367555462,0.555477342184864,0.592399013287138,0.575594885929304,0.504378068981375,0.504876140487236,0.517929728985281,0.530342446323786,0.523298389470865,0.498997204334894,0.526784184848835
630,Cane,12m,0.568930086012923,0.542697484909221,0.609016590242066,0.509316370236992,0.488574293160149,0.52609698017985,0.539940514618524,0.550957150494929,0.595816981144554,0.555315995264074,0.591884294524659,0.575184418016943,0.505060866489212,0.503832323559042,0.518679633176711,0.531013965237629,0.522219504135376,0.499044503482163,0.528557355626093
640,Cane,12m,0.568998591418832,0.542897845265415,0.608472159003589,0.508488120932708,0.488673302942121,0.527081738528889,0.537746648504495,0.549723491214806,0.59549995565416,0.555454652622988,0.593234101500529,0.57622906536436,0.506880016874664,0.502970967797638,0.51897028608725,0.530558363077227,0.521624801111358,0.499700192836915,0.530727388247699
650,Cane,12m,0.568977230017993,0.54246213931731,0.606988579149274,0.507775952705389,0.488850251294416,0.527983173384987,0.538059777590151,0.549008201340507,0.595638089603779,0.555580146721172,0.59485460320669,0.57752538792173,0.506605161056215,0.501645601907163,0.516974110963789,0.528408122661666,0.521225761723508,0.499472492760905,0.532126529959288
660,Cane,12m,0.569081699060465,0.540886626654673,0.603132110277565,0.507128518415848,0.489010279989221,0.528036098201738,0.536611642431705,0.547435095295034,0.594332000003243,0.554843153019749,0.594510183816521,0.576114468828584,0.507224664619937,0.501252020838409,0.515648947787607,0.529103588729723,0.519345962415842,0.500572390432723,0.533432925997292
670,Cane,12m,0.570376973720322,0.541877405155208,0.602883036495823,0.506522093782705,0.489290095888372,0.528532353457031,0.53444269886398,0.546821784730705,0.592166227804777,0.554627177772265,0.595177463094503,0.575869148217912,0.506597828278333,0.500697098091332,0.515292406507218,0.528934940972478,0.517881445722727,0.500153148020535,0.535127906708585
680,Cane,12m,0.569665664601726,0.541895536029418,0.601756836815487,0.506254033769578,0.489509384929143,0.528962684705901,0.532969762939251,0.54627281191156,0.591767939950172,0.554393870209838,0.596031518013659,0.575972290225533,0.506229422921411,0.499287302882255,0.514646446686791,0.531016374112133,0.516536289489846,0.49899980342124,0.537395910382781
690,Cane,12m,0.568567858671145,0.542481907279525,0.598345366601427,0.505185448991285,0.489735610699716,0.528661365813751,0.531726957954608,0.545586336490029,0.590937487464635,0.554140367378002,0.597570818738041,0.5759982306159,0.505942677299867,0.499391810106102,0.515010500494965,0.530131715097689,0.514933656201532,0.498443109055438,0.539966572768883
700,Cane,12m,0.567560906606462,0.540663753180358,0.594215505846464,0.504960813465004,0.490417433234456,0.528418097117487,0.531239922231198,0.544707560302702,0.590187714020749,0.55381459665489,0.599360281402353,0.575689772794752,0.504489099215574,0.498972103788943,0.515317083073402,0.529842650141497,0.51346652169224,0.49821533135074,0.5410605285874
710,Cane,12m,0.56740531188463,0.539797886130248,0.594092248326548,0.505105199126997,0.492120246179403,0.529561420002255,0.530145452237354,0.543721719904955,0.586543855197999,0.554133120682186,0.600676080147014,0.574735782179829,0.502515138866639,0.498272841755713,0.513372804183427,0.530561304926182,0.512662528815293,0.497868803652925,0.542542053514185
720,Cane,12m,0.568123632206135,0.539923252021201,0.594313225518221,0.504358599563457,0.493644609778725,0.529804323182888,0.528247857281222,0.542681018751932,0.583215682563684,0.555169952062149,0.602825145551224,0.573987657789534,0.503494728134118,0.49844608657761,0.512246471814358,0.532035569790726,0.511812638165564,0.497451209105728,0.542055412176087
730,Cane,12m,0.570307644247595,0.539773102521996,0.592942670815364,0.504365343833103,0.493529863345318,0.529903868197039,0.525998045382168,0.541587215564036,0.580272513310819,0.556133086958072,0.602248389891654,0.571720273704804,0.503852390629674,0.49868661370968,0.513795281063399,0.531838055542969,0.513118755018145,0.497257192690901,0.542373616613419
740,Cane,12m,0.572448568433547,0.540624107955963,0.590691616892826,0.504002173429344,0.493165496555803,0.531179277060044,0.52505136895394,0.539680616221183,0.578953297485862,0.556659333818538,0.605131713273265,0.570205038350083,0.503163512154776,0.498867509016872,0.515389791870743,0.52809303301459,0.513046170685138,0.497862142722672,0.543073825724757
750,Cane,12m,0.573532009963618,0.539353315612381,0.588682016481555,0.504995942823283,0.494198201503605,0.53218295876231,0.525690196140363,0.539180968529334,0.576420587658907,0.557425551064151,0.604261950685063,0.568984105416614,0.503058576028174,0.498913958680541,0.517316139744441,0.526141787323824,0.512644268222865,0.497724490454301,0.54415317329511
760,Cane,12m,0.573828080022105,0.538249071628612,0.586770307896195,0.505083710354116,0.495507553740519,0.531638209254748,0.526128347914745,0.539024830331814,0.575630740220914,0.557889265662705,0.601543233576418,0.567567483406632,0.501736397347852,0.498600108620098,0.517355576928356,0.526070837556879,0.511758450779951,0.497700299081304,0.543981065077083
770,Cane,12m,0.574674995073288,0.538339177772655,0.585418101928953,0.506417881194721,0.496993844059833,0.530024692342654,0.52616990440086,0.537450206288244,0.571819097236862,0.556858133110906,0.599428048381911,0.566399098173167,0.500479915935928,0.499763981860543,0.518268228673699,0.526506958766022,0.511389685282955,0.497444989876386,0.543733987375084
780,Cane,12m,0.574819079271816,0.538175432999763,0.583284891162876,0.506901880006927,0.497618052438013,0.529351616419096,0.52741629092843,0.536043703040967,0.568993338580083,0.557749293052165,0.599747112135102,0.565568016889467,0.499740916237705,0.500053885543903,0.519187435030823,0.526248951345215,0.5123781973288,0.497848545666752,0.543442195520083
790,Cane,12m,0.576830856962752,0.538898289682774,0.583101480628686,0.507835377756847,0.498840478032571,0.529379572779674,0.528894943454861,0.535206489774621,0.564633498748467,0.558677205642544,0.599756581128599,0.564568805333741,0.498722771787758,0.499807384852255,0.521195262577819,0.526065639738093,0.512536067148511,0.497377714200593,0.542567155484952
800,Cane,12m,0.577303276425571,0.539560369057709,0.583060589024849,0.50895592460707,0.498571348009577,0.528344340762791,0.528870277594363,0.535016518496992,0.558843799924421,0.557113756742284,0.599975152207588,0.563186804910298,0.499611903923498,0.500464669776276,0.521539588748461,0.526776231517766,0.512160316148621,0.496562547675573,0.543173145881387
810,Cane,12m,0.576657882360266,0.539299564690915,0.582933263872117,0.509865605439163,0.49781141501484,0.527554513191268,0.530435526413985,0.53433515063095,0.555664090759633,0.556546501433396,0.599531184070278,0.562412269562101,0.499868872097151,0.500750189829017,0.521466176864282,0.527377840051456,0.512213151073414,0.495915259369939,0.54321148491004
820,Cane,12m,0.578949914385313,0.540038085194028,0.582340418440654,0.510292284945122,0.497883535520701,0.527865061448959,0.531861733358268,0.533424044863316,0.55153420013743,0.55851824838156,0.598138435105089,0.561914824709218,0.500161704159744,0.501570967187447,0.523519590906413,0.527527285758178,0.511691682633175,0.495701125685979,0.544091321545208
830,Cane,12m,0.581354221615184,0.540978473731034,0.581230880603216,0.510888096133465,0.49745854504615,0.52742017721338,0.534707796741705,0.53226574169992,0.546418886842435,0.556577234912961,0.596352076944678,0.561918621096058,0.500618015039628,0.501709691565253,0.524397559635501,0.5278973260677,0.512457725809484,0.496376046875311,0.542840950276951
840,Cane,12m,0.581275710331164,0.540539215062481,0.58034715747225,0.51083533670889,0.498034040892044,0.525807968261786,0.536723840141664,0.530902754476056,0.54476042348405,0.556511422181876,0.595330733609587,0.56130791744375,0.500445320439462,0.502063355213884,0.525530650947119,0.52766897762682,0.513496271397871,0.497223777141436,0.543683286323885
850,Cane,12m,0.580931621043117,0.540070799470093,0.577583878311537,0.510999738553872,0.499639737673398,0.525460384345239,0.538085958368436,0.529407090607042,0.544350262336935,0.555620744423482,0.591843529647633,0.561055522511267,0.501386644036237,0.502291705171091,0.525721297258942,0.527521163969965,0.51428211126803,0.496182735827526,0.541830592442129
860,Cane,12m,0.581286993742867,0.540272535306162,0.578516946848869,0.512579014946006,0.499412049903069,0.526270029024156,0.539129521536589,0.52839159809617,0.544679777844052,0.554424417764158,0.59112487742692,0.56082919010592,0.503254979006651,0.502212899381171,0.525795146768746,0.527599417044911,0.513887413865142,0.495146886254412,0.542696510988815
870,Cane,12m,0.581884377731848,0.540703126876261,0.578304165806639,0.51370058076397,0.498980556058199,0.526724401582842,0.53988826692735,0.528638648130511,0.542121630277759,0.554030192096707,0.589439816007965,0.561028706476341,0.505654646597341,0.502337826456698,0.527736389177024,0.526229135903782,0.514175718517943,0.494639577800298,0.543593800829274
880,Cane,12m,0.581956242374807,0.541330337439456,0.576480403628174,0.513793267502162,0.498374465995751,0.525702321450761,0.540767309264522,0.528629505566836,0.539287392392324,0.552744523606114,0.586751650768651,0.561049057805963,0.506781432275698,0.501457445582166,0.528001146848591,0.525766672330505,0.514277770885514,0.49402967674192,0.54258493650175
890,Cane,12m,0.582076439875498,0.540726790029779,0.578161931999138,0.513926142117744,0.498075386781936,0.523094195728587,0.541842565846957,0.52780567241403,0.539993013305008,0.550189619231618,0.583795686631411,0.560753466591837,0.50678836543493,0.501747211541714,0.528957427047786,0.52637869991864,0.516065632335588,0.495031514981594,0.541839108618655
900,Cane,12m,0.582361826287885,0.540978528923317,0.578965666364233,0.514186060866125,0.498596158821711,0.522342156298829,0.541371904903586,0.527222801380971,0.542486176611508,0.549852641647968,0.580657362834986,0.560125442316388,0.50675146454536,0.501282084436267,0.529201437384248,0.525452625545574,0.517005509620546,0.493514548859242,0.540947847101901
910,Cane,12m,0.583628028907036,0.542372967223382,0.579516235188459,0.514324484601152,0.49847433601689,0.523338273599687,0.540054801904316,0.526530286016181,0.54146995882223,0.548536459897158,0.580115227375892,0.559548735637261,0.506523898164969,0.500663167604517,0.530058737708967,0.525349643507287,0.516718790406328,0.492673337371164,0.541503921765174
920,Cane,12m,0.584631924342496,0.543391335315946,0.580159757779455,0.51364265747705,0.497750784990242,0.522418993846542,0.538442419718388,0.527017610583077,0.542115322807267,0.548444541295197,0.578827089375983,0.558273161780593,0.506307721779409,0.50049669495232,0.529571586432555,0.525129275341979,0.517824080576098,0.491931378151365,0.541652827775
930,Cane,12m,0.583101917339479,0.544124141436296,0.579774378379415,0.514299194980347,0.497202779016386,0.521756226192778,0.538340379107012,0.526314482670332,0.54165113992292,0.545347043525457,0.578108517541465,0.557074721360949,0.505259560635603,0.500835261837353,0.529102625143143,0.524846681878908,0.518788175067197,0.491682140938137,0.541141213908895
940,Cane,12m,0.583452215417323,0.5451496403931,0.578071692175182,0.515217648537758,0.496587067728908,0.522825044044968,0.537682123036681,0.527400519940366,0.541347108774507,0.543275660268351,0.577734599543117,0.556015999560032,0.503849339814949,0.50093057364219,0.530290437158164,0.524567896570723,0.51871684657649,0.492740092449871,0.542318087424209
950,Cane,12m,0.582570327218781,0.54448030016912,0.577374621695501,0.514063308528582,0.496249593821235,0.522217569853094,0.537553553435705,0.528533870475334,0.541084034240225,0.542284501154091,0.578355152132792,0.553652417289979,0.50309753253235,0.499955089812875,0.530374981450666,0.524442703443404,0.518232851275729,0.493016150996832,0.542350406933481
960,Cane,12m,0.581044147058275,0.544294235763285,0.577725936901964,0.513898701373214,0.495075846348673,0.521241246280592,0.535799918765561,0.529544296759709,0.54006061649333,0.541800309866684,0.576500645133167,0.554156547102717,0.502253551290776,0.500465903802465,0.530507303516272,0.523588992632895,0.518885966093923,0.492942991328367,0.543464699787626
970,Cane,12m,0.58061538997497,0.543854342953601,0.577221735582683,0.512427179970496,0.496244535380091,0.520535428181853,0.534258701959861,0.529256906053976,0.541684327954193,0.541479071496279,0.575039495939746,0.553273054310981,0.501316153964021,0.500152416750528,0.531446577084732,0.522357984594719,0.519335195278802,0.493469086913129,0.543185397197872
980,Cane,12m,0.580423141395248,0.544293491379529,0.57759074655599,0.511663681439781,0.496111584119311,0.521907371067911,0.533527324324329,0.52857611299823,0.542968784121685,0.53983766249335,0.575269143859889,0.552495280857711,0.501169307138675,0.500122362486974,0.530923904282464,0.523332315926356,0.518970391363068,0.493626603918361,0.543194064406639
990,Cane,12m,0.579003380223533,0.544318364054505,0.576878762061403,0.513655458697357,0.496149675153749,0.521149717313261,0.531436154025872,0.527494805232407,0.543288196645818,0.538767354689243,0.57245254541545,0.552361023125003,0.501627825281315,0.500056866268144,0.530906611174007,0.524769230472567,0.517987774684902,0.492910925779887,0.541868206076468
-1000,Grasp,12m,0.60989128669407,0.557688885105458,0.591511300445836,0.542779732697116,0.494684263273664,0.497997098445039,0.542747760830303,0.535889751476812,0.595045203739801,0.548439301313836,0.58410744062298,0.540832566864867,0.512443678704721,0.516143357456383,0.565679090795537,0.556306125171854,0.533707386711052,0.498447843076921,0.584318598094021
-990,Grasp,12m,0.612482306232077,0.557682503126381,0.591298415283835,0.544759776053379,0.494229843059789,0.497937167359542,0.543937883569531,0.536156786008396,0.595630609039221,0.548707685215226,0.584592896037137,0.539509871582284,0.512360230096522,0.515721301359345,0.566491644591792,0.554828182498629,0.534223441940582,0.499402694158103,0.584454245069685
-980,Grasp,12m,0.614424727162537,0.557566083721703,0.591076860788629,0.54710498578308,0.494200757006382,0.498388243031098,0.546896814400611,0.535671507969897,0.595954060276742,0.549458418089069,0.584147957178736,0.538396854013054,0.511362054347794,0.515175616109047,0.567065628990855,0.553768838681574,0.534485919520405,0.499096902029105,0.58478869619255
-970,Grasp,12m,0.616424250716068,0.557921097846565,0.589902032449967,0.548745197395042,0.494124239352231,0.498733401310039,0.54504225349589,0.535128551598152,0.595195890845459,0.548435374270372,0.587802330457363,0.537513532667626,0.510353290824416,0.514771439924628,0.565692327536291,0.553205822818573,0.534763832110839,0.498961063247774,0.584908176138391
-960,Grasp,12m,0.617902944921984,0.557568149151986,0.589349443181975,0.548817629465402,0.494765489004343,0.498546186540544,0.545109364932934,0.536079495950533,0.594919540851485,0.547442910676105,0.587569448780054,0.5367471127351,0.510662667200624,0.514776276457062,0.56575509617639,0.555397137680817,0.535059699458857,0.499657740258095,0.58646202330797
-950,Grasp,12m,0.618695279184794,0.558412287582983,0.589818414710786,0.548804895283913,0.495434212071845,0.499164110317675,0.545956365351234,0.535206839102666,0.595121892453426,0.547819245511819,0.588475310434884,0.535543001075051,0.509537583277127,0.514782012706162,0.566185221502144,0.555036710531234,0.535160616704584,0.49948407756115,0.584184887837519
-940,Grasp,12m,0.619325991282939,0.558340509594282,0.588619954767327,0.550071298754732,0.495869522445672,0.499929181592689,0.546367081818724,0.536634757221037,0.59430166835884,0.548420993524715,0.588583909891879,0.534657712761035,0.510150061961655,0.513674591046726,0.564562876889034,0.553576950112602,0.536454717144064,0.501437850116938,0.584195249082622
-930,Grasp,12m,0.619832363247342,0.558851849235042,0.588325586866709,0.550759581010174,0.49597685060696,0.500607772779845,0.54719940722557,0.537263108919329,0.59344134159173,0.548939904340844,0.588129215494477,0.534529551526749,0.509662118764123,0.513073953247775,0.562642826734387,0.552171334775623,0.537358804273673,0.501377670294166,0.583101988031579
-920,Grasp,12m,0.620961831464355,0.559600353016923,0.589039010040868,0.552513270924454,0.49603441781621,0.501030654257999,0.549579376327883,0.537782986073096,0.593604949555942,0.550139318229465,0.587998295484098,0.535444828467458,0.509631502922436,0.512901322469848,0.561824889920767,0.550766014671593,0.539106468051411,0.502315290498541,0.583168014326342
-910,Grasp,12m,0.622058873520716,0.560141673928625,0.588357845562628,0.553794524715042,0.495500363416803,0.501409965533681,0.547498371928494,0.536263401170361,0.594350510360607,0.551749661035964,0.589441233857311,0.534721293739101,0.509772708659362,0.512767437732362,0.561452944543987,0.549299385747707,0.539991585813087,0.503047750983448,0.58288515269311
-900,Grasp,12m,0.623102837811201,0.560503528018398,0.588817736186536,0.553588173216386,0.495728353242567,0.501680523764149,0.548789711924498,0.536120873890528,0.59493151228743,0.552486744028591,0.593240308635775,0.534261948565257,0.509451044310482,0.512654564550244,0.561628714287915,0.547799182632954,0.540506921506507,0.503181869284281,0.581862643797994
-890,Grasp,12m,0.624489327143512,0.561313986465409,0.587921809179804,0.555104808726106,0.495564056198292,0.50198847437609,0.548876141828596,0.535110093137192,0.594291503457237,0.553543798222239,0.59563916951544,0.534914002683181,0.509360031690062,0.512810766108427,0.561070780295175,0.546893537442072,0.538966888834756,0.502133215807109,0.580434897661003
-880,Grasp,12m,0.626150957908791,0.561413739847072,0.586794214248898,0.556278912311376,0.494974257384941,0.502466799705278,0.55039333036203,0.535141862518391,0.594987626698042,0.554516274396736,0.598138495693534,0.534240981453703,0.509273034516673,0.512496629739783,0.561583484112691,0.546055290961615,0.538109908736545,0.502542139297523,0.579951771337047
-870,Grasp,12m,0.626617731059671,0.561660657034891,0.585404206107823,0.559229104270607,0.495288988899909,0.502150160026332,0.550704666387234,0.534148216533722,0.594924216956302,0.555191103659721,0.599414991541027,0.53458476641538,0.509176554177237,0.512029993010332,0.56057059969144,0.546105060661631,0.537894062137723,0.502830744576957,0.577949807422485
-860,Grasp,12m,0.628356924398801,0.562774628099516,0.583433835660273,0.560688668729929,0.495335543897356,0.501904886151401,0.550340942767591,0.532411273770242,0.595602002405212,0.553983086753773,0.599903216495216,0.534544702621491,0.508902171191204,0.511602409491063,0.561357781110021,0.546035327151621,0.537438679302938,0.503110980902046,0.578424172476909
-850,Grasp,12m,0.629886802628278,0.563572570536757,0.580428605664738,0.561648597863148,0.495407020496653,0.502205171953682,0.548725500343529,0.531444119387912,0.596554821148088,0.556218611698551,0.599733848911429,0.534872444155297,0.508703675225988,0.511272138646862,0.562563151797898,0.547187261854913,0.53816796667096,0.502983564218157,0.577860261078621
-840,Grasp,12m,0.631714297804501,0.564352228639253,0.578810340961034,0.561918247231764,0.494863196548444,0.502253365455701,0.548995624749124,0.529634336607558,0.597360215682718,0.558321661214732,0.600085336796206,0.535121887141273,0.508417147190281,0.510997485382411,0.56276041331795,0.54470752833607,0.538819186605401,0.502630166754815,0.57735314232403
-830,Grasp,12m,0.631349860332101,0.565388156475384,0.577822294794965,0.565500232830681,0.494902176093541,0.501941843168369,0.549387483654536,0.528325753311886,0.595800619167012,0.559132165372302,0.599770407665758,0.535937514551313,0.508921690348758,0.51080575394517,0.562063382899632,0.544003772689837,0.539436928394188,0.502297973664288,0.57698151271011
-820,Grasp,12m,0.630833966915648,0.56615949261969,0.577085018150885,0.568125818181216,0.494626113509667,0.502933301714694,0.549779465134376,0.526998936193495,0.596298552724779,0.559755166005626,0.599668361155821,0.535927228102685,0.508255670296503,0.511270452754555,0.563436925034522,0.541115788341572,0.539613628815979,0.501498938772719,0.576435094536055
-810,Grasp,12m,0.630331226285328,0.566087228921247,0.57800634264902,0.569878673471733,0.495315451169439,0.503237441990955,0.547533050528203,0.525228231886868,0.597529654612703,0.561891707006239,0.598230078574439,0.535864550877012,0.508264193570549,0.511720043863505,0.563693793067522,0.541403303632916,0.54022633942712,0.500469043773241,0.57547821920655
-800,Grasp,12m,0.631460444121244,0.565110856991888,0.576823616761808,0.57270684367908,0.495267874833752,0.502594583286143,0.54698478759775,0.523525220424426,0.597438460123176,0.564032326657044,0.600796955354218,0.536231727907202,0.508376556486176,0.512562761917052,0.56398964662778,0.542330314330458,0.541280213431501,0.499587153589536,0.574934267374503
-790,Grasp,12m,0.632180678335465,0.566587914213901,0.57621762597217,0.576415804992265,0.494550645190949,0.502109572733233,0.54737372011169,0.522311176593522,0.598379790011405,0.564727124702998,0.601109650969715,0.537169575406395,0.509057587608569,0.512331255493438,0.564435451338478,0.54162867383186,0.540648595543766,0.498951691667266,0.573785889502521
-780,Grasp,12m,0.631300071401607,0.567155841621526,0.576367652789339,0.577623452727708,0.494693711092921,0.500152077022765,0.547884399380003,0.520658757323059,0.599789705399488,0.565131860183853,0.599325893049475,0.537894302013131,0.509696572957455,0.512243400231386,0.565133269855147,0.540392038076214,0.541495347611895,0.498130158860259,0.571390091014905
-770,Grasp,12m,0.631476104687858,0.56707261142485,0.576792580931326,0.578428066098633,0.49511267332146,0.499151645001872,0.546539861557933,0.520124768692522,0.599008563820379,0.565668835841999,0.59828160376965,0.539208943112556,0.509647122394759,0.512589265914282,0.566195470519303,0.539861568265301,0.542904737711239,0.497750019593255,0.571747453881515
-760,Grasp,12m,0.630962908219696,0.566646997545607,0.57687722889961,0.577861374903655,0.495497505049448,0.498727567217671,0.544432578120567,0.518736709310572,0.599606350163895,0.566457084270222,0.596726736679272,0.539500790067377,0.509613660212409,0.512697904408934,0.565174831811685,0.539298014371369,0.543602288297991,0.49746600512881,0.572059842252849
-750,Grasp,12m,0.630604455816085,0.567084450352063,0.576648760921935,0.578344214722771,0.495603800967535,0.498829691456325,0.544323610333671,0.517312401323051,0.601127477159961,0.567759531980123,0.596051757315749,0.539510510643549,0.509803116300189,0.513237083044529,0.563737656212453,0.53896201954353,0.543269840691089,0.496900772227386,0.570648505432647
-740,Grasp,12m,0.630438356676702,0.5675511093147,0.576339838909366,0.580006050433791,0.495219124696529,0.498386232839006,0.543578568943436,0.517040892421333,0.601415392622571,0.568393073150201,0.598280669428398,0.539628349194351,0.510198442688324,0.513712489511268,0.565161233070027,0.538877939497572,0.543505716681466,0.496999382233084,0.570200039132138
-730,Grasp,12m,0.632213414995086,0.568572986242716,0.575979532421978,0.581090777156091,0.495615555835777,0.497500876938586,0.541838416901703,0.516184559465856,0.601154598004856,0.569089439430903,0.598402114374959,0.539354166443858,0.509917320720225,0.514241552754913,0.566610745766668,0.538522893528816,0.544874742909688,0.497211645745251,0.569044499424245
-720,Grasp,12m,0.632698672962701,0.567940934455967,0.574389204199027,0.581142615090636,0.496067546183615,0.496676551958022,0.540702268019125,0.516625162830773,0.600129559709602,0.56907315548495,0.600604569401246,0.540110842741887,0.510418836804301,0.513775412934813,0.566351515806629,0.538034587792611,0.547002170928679,0.496466412428417,0.567248848932044
-710,Grasp,12m,0.632273991260279,0.568552614880161,0.573959755151259,0.581887088558722,0.496046440884814,0.495852411423121,0.540261941290556,0.51718074634824,0.600657829105505,0.569207515029073,0.599081420834498,0.540511396213235,0.510973378329678,0.513464175647773,0.566186477659657,0.536139209447304,0.549658926106829,0.496041970298232,0.566021863929414
-700,Grasp,12m,0.631959428030732,0.569018577346709,0.575014741169941,0.5828693222694,0.495957244671055,0.494959892785586,0.539102526910984,0.517639319219749,0.600788557886322,0.569063491901917,0.599758268087941,0.540920709762932,0.511456738529356,0.513520847624108,0.565418000240531,0.536533721349887,0.551689436353911,0.496400085960195,0.564802639196756
-690,Grasp,12m,0.63161122862762,0.56941743773059,0.575047061264661,0.58307933815984,0.495153460598149,0.494086390823877,0.538214696415511,0.517641264620187,0.600505808067911,0.568675336197757,0.601101057246169,0.540519061005156,0.511299661819073,0.513629336399545,0.564735264971985,0.536146403490827,0.553701113259996,0.496004459521843,0.564557699011531
-680,Grasp,12m,0.631362560820124,0.569006084765804,0.575754909621601,0.585416841063489,0.495239202109762,0.493828467501655,0.537576918022304,0.518873551931497,0.602157594117164,0.567791275929745,0.601019281928604,0.540574748471311,0.510805260035037,0.513893672585182,0.564164728793005,0.535817406341264,0.554037731372935,0.495468687701915,0.564202071908728
-670,Grasp,12m,0.631421288674194,0.568213479353405,0.574054244488716,0.586831409011424,0.494829762909487,0.493459736935182,0.540412630226197,0.520860013477921,0.601763644288676,0.56821944387799,0.600326570982979,0.541943114693101,0.509794182855459,0.5144980507403,0.563474566059603,0.536161835264233,0.554916800711393,0.495697563604351,0.563181899490029
-660,Grasp,12m,0.630946008847617,0.56754315464319,0.574605065491329,0.589503711550143,0.494842457742697,0.492395447589728,0.540053045865375,0.52187300281314,0.601592337534179,0.570990320109272,0.599668293855638,0.54218285563416,0.509994608972864,0.515088418999297,0.563367388772863,0.536468078487197,0.553928473593973,0.495880317460147,0.561900613684433
-650,Grasp,12m,0.630713712367437,0.568112000730003,0.573586859248871,0.590999601710214,0.495948596831493,0.491735130751007,0.541967464525898,0.523078482109228,0.602747026477215,0.572526030271848,0.599009743366039,0.541435983644799,0.510620142611127,0.515623314369633,0.563954908991862,0.537320696475458,0.555567232152941,0.496019078622498,0.56224961373487
-640,Grasp,12m,0.630172604412905,0.568181868899243,0.570864510880179,0.59156714828658,0.495330568560758,0.490956175633437,0.543583285988272,0.524071106532836,0.604417873836486,0.57280396717362,0.599784138630216,0.541225253339369,0.511385643918409,0.515310771518232,0.563201408925512,0.538379937198355,0.555600891812785,0.495942838500526,0.56079859477034
-630,Grasp,12m,0.629357009504077,0.567926055175343,0.569709337083293,0.591355496202521,0.495210601890809,0.489878408504345,0.545802414245282,0.526716784190633,0.604182217664842,0.573626864169221,0.599963014014186,0.539958868067668,0.511253944832246,0.514361858748302,0.562871655314182,0.539662399662276,0.55588231187509,0.49594109524432,0.560640357132695
-620,Grasp,12m,0.629344788222487,0.567034355987451,0.568633608676115,0.590436950425146,0.495071082383401,0.488461971969764,0.548607996120953,0.527080396297554,0.603322680883547,0.573378870673001,0.60172627952584,0.538698400135658,0.51282456196635,0.514591672569531,0.562285104419758,0.539841912918737,0.556230007733683,0.495992980263172,0.56045508326581
-610,Grasp,12m,0.629288801429698,0.565935115229557,0.570957746657844,0.589415548215963,0.494989523347162,0.488622891549786,0.550439330214784,0.527650617996113,0.603025257324369,0.573454696560477,0.604455836396072,0.539677655583633,0.513352707574559,0.51473938671468,0.561444748042645,0.540180370645245,0.556967006789013,0.494860579782656,0.560747463557462
-600,Grasp,12m,0.628300334567001,0.566327678686473,0.571917499022676,0.589756364409975,0.495226476303896,0.488757742622003,0.550984620279238,0.52881977525132,0.605235444980563,0.572569660017556,0.607760602089978,0.53889840839599,0.514012388115022,0.51485519202732,0.561132217059338,0.539937064157921,0.557120209864408,0.494136700074152,0.561648662141277
-590,Grasp,12m,0.627558088914792,0.566195813907883,0.571891879953801,0.589425352882574,0.495600216760823,0.488998824877283,0.552979275116427,0.528860184312477,0.608031331935308,0.572592927436358,0.607591033272136,0.53835930500016,0.513342874160448,0.514908156972111,0.560357643299203,0.539110583557748,0.556376154809715,0.493756024754744,0.562073218726509
-580,Grasp,12m,0.627325257575246,0.566472107046216,0.572019820303663,0.589374918060253,0.496035154012796,0.488853864567974,0.554026524006101,0.528868213722534,0.611127923047399,0.572366336642301,0.607370457801567,0.537818135757712,0.513301572787735,0.514478028726404,0.56022541381041,0.539738647874573,0.556248350602846,0.492806239755452,0.562067185116251
-570,Grasp,12m,0.625525123665192,0.566681968580281,0.572334504428853,0.588374287784636,0.49615507980933,0.49017737464533,0.554047434028819,0.528897534062097,0.6142237332601,0.570954668826619,0.608945876263001,0.5383233836322,0.51324560373518,0.514370694945155,0.559792982272142,0.540546015128241,0.556713813980403,0.492400124025017,0.561133657015793
-560,Grasp,12m,0.623351418000344,0.565398774521267,0.571538627322695,0.58649131694607,0.495906605942596,0.490569915028237,0.556265398756471,0.52892009648395,0.617486027697988,0.56940777696077,0.611098180161198,0.538737718283963,0.513027015977459,0.513984024678258,0.559015872713207,0.537096775184693,0.556333890271183,0.492148773851372,0.560517043738841
-550,Grasp,12m,0.622193192998281,0.564928580897923,0.573089477374549,0.584633988796694,0.49440581356481,0.491099913427208,0.557116317893935,0.528952759153765,0.620769640132963,0.570358055398067,0.610744241790862,0.537732010579452,0.513734588529952,0.514205023663265,0.558188695790517,0.536178199728666,0.556902223871907,0.492443425314329,0.559740261306206
-540,Grasp,12m,0.621598151942131,0.56531633016868,0.574377644004133,0.582618346526104,0.493659261428029,0.49171001326542,0.557341267704452,0.52894181959695,0.621980558395408,0.570028620029351,0.612587950041485,0.538271845982987,0.515295061291296,0.514367098499329,0.55740098524675,0.537593189187454,0.555256967013014,0.492804901257436,0.558675674961869
-530,Grasp,12m,0.621074456244908,0.564172558795149,0.574484076509027,0.580366860068909,0.49311421289296,0.492304546073332,0.559126151483842,0.528755235708986,0.624440847461956,0.569355920808623,0.615635328658209,0.53914935317516,0.515774538254243,0.514254263894077,0.557645628366832,0.538910474077591,0.554695798936957,0.493144522559305,0.558857627224024
-520,Grasp,12m,0.620356517470141,0.565244899339994,0.574358244944485,0.577887410300592,0.492480951815121,0.494849619943729,0.558659806270471,0.528664443168865,0.62618761154597,0.569576001970999,0.617443794063762,0.540030011706471,0.516002640151034,0.51406778056901,0.55663489560729,0.538006979254429,0.553913413578993,0.494996804958393,0.558992263973983
-510,Grasp,12m,0.618674779599207,0.566071758276129,0.574189280970549,0.575863974588072,0.492267188893067,0.497814300554752,0.555650397924023,0.527741228241898,0.627751987278954,0.569627370840432,0.615438655315415,0.540376593902226,0.516530424477642,0.514327365570876,0.555343319840357,0.537217623902505,0.553380098159462,0.494590312542273,0.558000509977728
-500,Grasp,12m,0.617060677894514,0.56545638050403,0.573882003748172,0.573858379326713,0.491018257905939,0.499223740145543,0.555954953128384,0.525391989239305,0.629186106984227,0.56887653173459,0.616314661065774,0.54111122764221,0.517273855138068,0.514427941913629,0.554469016362784,0.536434540001168,0.55310147921853,0.494274063858398,0.558630608648082
-490,Grasp,12m,0.615946511246377,0.565605291314909,0.573550318166466,0.572487953616256,0.490807985933512,0.498884078831867,0.552710298527024,0.524269053980365,0.630997890093483,0.569507231620272,0.616211579774449,0.541555094051879,0.518241523959772,0.514396236174364,0.553873883560963,0.535947370312262,0.55375508710323,0.494204365387745,0.558148589382151
-480,Grasp,12m,0.614848127962695,0.566294956340204,0.573271054105679,0.571329029910904,0.49129196710877,0.499201186818317,0.55447800395994,0.523086916596751,0.631343014297056,0.568941508334982,0.615822288575427,0.541670954416787,0.519134829124621,0.514448001355598,0.552572573219874,0.536936705454311,0.552853266794285,0.494242086460991,0.557444710964433
-470,Grasp,12m,0.61464732024686,0.565799392905451,0.573045659330881,0.569300786230053,0.49112810453218,0.499798814743436,0.554031005604138,0.522533538821976,0.631541863186435,0.568953203559013,0.615373472101017,0.543002115605503,0.52002365891349,0.514804677761124,0.551395909983394,0.536156166512774,0.552252139135563,0.494447572226641,0.555085775749007
-460,Grasp,12m,0.61444320070539,0.565008898154478,0.572501806702532,0.569253451620605,0.491176964489888,0.499989207400975,0.553256834053529,0.522795630223806,0.631914557236534,0.567924503141564,0.614428322560591,0.543487215987403,0.520679240723558,0.515291221926714,0.552500946155202,0.537375008841182,0.551659612505871,0.49543879453197,0.55108902370544
-450,Grasp,12m,0.613327071795268,0.564986060705667,0.571733434809366,0.567221671750193,0.491113052729742,0.500069169150951,0.552563386214575,0.523904778145137,0.632792963391972,0.566633340772048,0.611672563435363,0.543723815952789,0.52208978573499,0.515826284644053,0.551658236557987,0.537076887448757,0.551287047951939,0.496300892069033,0.551701586198825
-440,Grasp,12m,0.612157534512175,0.564819341463924,0.570600939272635,0.566961486765866,0.491444086801411,0.499884987267559,0.550122142964814,0.523842476129565,0.634244633298418,0.567155112043355,0.608730836839357,0.544458335101358,0.523625371597846,0.516431392727858,0.550877498541279,0.53750054308883,0.552075197757896,0.496388729353417,0.549638534263084
-430,Grasp,12m,0.6108911602117,0.565987301370929,0.570261774474636,0.564329358103232,0.491503883050011,0.49944550934913,0.548952568566917,0.52372982491282,0.634918727803378,0.56715299378017,0.606716014616847,0.544429087305481,0.525345317678383,0.51692439493795,0.550830993998029,0.537595616124459,0.552122379130261,0.497081480056394,0.548867648101438
-420,Grasp,12m,0.610254190785355,0.565656432584257,0.56853651399219,0.563195731814028,0.49132478259912,0.500109777893279,0.549750472384988,0.522960284528161,0.63471094991977,0.567035499044284,0.603952392063903,0.544395216633051,0.525160519799515,0.517598611439442,0.550830623887496,0.537521509281065,0.552310439430811,0.497901236223966,0.54604004038173
-410,Grasp,12m,0.609742775827011,0.56509399385179,0.568114361590454,0.563124451272425,0.491965526181026,0.50032856375503,0.549159707403277,0.523458460277382,0.635939230634445,0.566719161930462,0.600820358931122,0.545387431289502,0.526116429394224,0.518770329469182,0.550891387190953,0.53744442245321,0.550658638457068,0.498833824703692,0.54436018092452
-400,Grasp,12m,0.608944374405305,0.565160029707766,0.567357801861384,0.563191639330023,0.492183589445938,0.501070983340167,0.54721339340728,0.523434011879993,0.637025697344718,0.566698778473569,0.601474879100511,0.546092941180793,0.527189088509591,0.519905474249201,0.551074066167972,0.536952780822699,0.549150376152334,0.499201818245041,0.543734568968032
-390,Grasp,12m,0.607811308517335,0.566188520129807,0.566433160973409,0.562814548393367,0.493099916747463,0.501817003413357,0.548101086141337,0.523929814533201,0.636221104411376,0.56585091641844,0.601633866279056,0.547009079788884,0.529053098024923,0.521225742880219,0.551193743537136,0.535796964428186,0.550929119790484,0.499462842910139,0.541529872936952
-380,Grasp,12m,0.606880828451028,0.566718434843525,0.565457333165879,0.560840044537952,0.493362143481038,0.502573573527081,0.548965170174895,0.524857740701386,0.634988387057005,0.564288106480454,0.601230504237746,0.546641703952762,0.529459989800107,0.521663099556859,0.550541851974129,0.535989401270324,0.553091557679667,0.499692481081582,0.538876743554548
-370,Grasp,12m,0.606639288143313,0.566496227407995,0.564412230576478,0.559892256188164,0.494008679759199,0.503563261784098,0.549740633073203,0.525931400300916,0.634183482254015,0.563419797429614,0.600771948879431,0.547082609513599,0.529692415279276,0.5221145090951,0.550068308027483,0.533365683067308,0.552468644834942,0.49979076433674,0.537254688843171
-360,Grasp,12m,0.606126757209815,0.566557964908131,0.563714280653859,0.560709699972157,0.494141629315839,0.505294143642479,0.549027847787218,0.526556763582554,0.633148094512953,0.562562101454541,0.599020034796295,0.547509863103762,0.529656589738679,0.522119599956893,0.548990183897797,0.532075581284981,0.552089785220158,0.499745841176762,0.535349931813888
-350,Grasp,12m,0.605289609860554,0.566193460755236,0.563428524126417,0.557836415164069,0.494795949112228,0.505999146136051,0.548360212636863,0.528011562601391,0.632317778196128,0.561517228746125,0.595024293741862,0.548015699786757,0.529386243454682,0.522237963449767,0.548380655882012,0.529797411809814,0.551160428811306,0.499356758689871,0.533928127433539
-340,Grasp,12m,0.605132129121116,0.566872786693027,0.563170834977093,0.556730662549809,0.495073478202301,0.50749345760911,0.547582989537793,0.528887426708617,0.63156440277378,0.560376583808785,0.595172214583965,0.548233139419785,0.529061318260057,0.522643271260944,0.549497820983312,0.529490031110315,0.55169608489405,0.499424505506683,0.533525201242176
-330,Grasp,12m,0.605305171164422,0.565616128415307,0.561823834083643,0.555774134763712,0.496148176950049,0.506967870282285,0.549777904568016,0.529555512126139,0.630881133376157,0.559667113260616,0.594812300351433,0.548035855228254,0.529800045256166,0.522227590677518,0.54955599690725,0.528951100438951,0.551684306966756,0.49970259621784,0.533230992819595
-320,Grasp,12m,0.605090640205356,0.564985777271678,0.560414613324518,0.555167542271743,0.497708486792633,0.506060775502804,0.545200153947338,0.530507693183615,0.630254254141672,0.5577511540701,0.593083145163965,0.549310447432176,0.530391762691514,0.521705503726543,0.549090214699997,0.528400834011197,0.552497891023247,0.499750934210285,0.531661235881331
-310,Grasp,12m,0.604844330168937,0.56509039029007,0.560092518841901,0.555013719805989,0.498891690443426,0.506435105691411,0.543421744182827,0.529743805127005,0.629548046431728,0.556204468220525,0.594010385917577,0.550313238539719,0.530783958927294,0.522609081884913,0.550259947319349,0.528091695225616,0.553436512467278,0.499808953959873,0.532046064819104
-300,Grasp,12m,0.604477453174883,0.564914267859794,0.559303687480991,0.555652381234157,0.499729623908742,0.507758798835307,0.542981750000514,0.529224105213687,0.628749156595112,0.556807414780911,0.5949632186898,0.551165723441342,0.529852992487609,0.523472410301079,0.551994127980071,0.527364918593632,0.554228293333409,0.498957587547367,0.531840164845002
-290,Grasp,12m,0.603159728132388,0.562897636545346,0.557291874196898,0.557025207628426,0.500748527576655,0.508764542168282,0.544098179155543,0.530149061407808,0.628735086708125,0.557211833265312,0.592690098818455,0.55161412328923,0.529183840999944,0.52417493036241,0.552993126665006,0.525197493224212,0.55403457156105,0.498077672710428,0.531906673399114
-280,Grasp,12m,0.601547309758232,0.561536566495692,0.55729550799487,0.557168026054653,0.501757538956875,0.509489847761101,0.543350492367957,0.531420219308503,0.627936404349901,0.556505889014328,0.592491993877467,0.552443463768429,0.529109314731956,0.524106141909156,0.552761437475636,0.524537571395541,0.553955840964969,0.498801174906078,0.534048982362318
-270,Grasp,12m,0.600508915302161,0.560792450455961,0.554893215723776,0.557685911911279,0.503157730131052,0.510756814356654,0.542752389331891,0.531164127101771,0.629092536941335,0.557570388596849,0.591579350380697,0.552870672129978,0.52857964603109,0.524297090442849,0.552981767533869,0.526330090100511,0.553355281822662,0.49831170961271,0.534911276502833
-260,Grasp,12m,0.600311886288602,0.559939805620699,0.554940273837524,0.558732980668425,0.503631351073773,0.511494320613135,0.542524182427016,0.532303203191824,0.630218603157572,0.558666980711739,0.590080631179267,0.55511811174099,0.528722857152375,0.523962622405093,0.553095122160484,0.525080485165592,0.552534626425767,0.497801348036777,0.53335144837201
-250,Grasp,12m,0.598302090139869,0.558637981239942,0.555009176732427,0.559108690532646,0.50339896253045,0.511669764777712,0.543588044269717,0.533982652167061,0.630489597843485,0.559544949336126,0.590471610666857,0.557027187037245,0.528767633168912,0.523820114856534,0.55295480712202,0.525404178529744,0.550643271661216,0.498813065102323,0.532017554443052
-240,Grasp,12m,0.597245008216909,0.558313088354747,0.555595475554356,0.559095880328547,0.50390482925902,0.514359424706496,0.544848378554175,0.534205166403143,0.630622350993821,0.560385664574457,0.588213661499775,0.558766445019275,0.529126571071787,0.523825206188396,0.552701784547691,0.524884977791158,0.550387456384287,0.499037472857432,0.532808119942565
-230,Grasp,12m,0.595689207254608,0.556603178697076,0.553883169450179,0.559942776648847,0.503555929080641,0.51710894370452,0.548244740005747,0.535262180604536,0.630034393354469,0.561206950120744,0.588290797743037,0.560666918678393,0.52908091931675,0.523897151075355,0.552472580541692,0.525698453259759,0.549378188639018,0.49875360334142,0.533132418171447
-220,Grasp,12m,0.594416277991148,0.552386118030564,0.554926412439675,0.561423621030596,0.503165592348948,0.51757193364164,0.545660713468929,0.537050747856152,0.628215635505513,0.561989647720153,0.586085231032899,0.561846121158064,0.528831753179215,0.523584594879917,0.551961789293404,0.526630757149325,0.548733261168268,0.498531804695669,0.533843478626674
-210,Grasp,12m,0.593499968055088,0.549970365503473,0.556041147544769,0.561874516574546,0.504593293612535,0.520320400426981,0.54520516938474,0.538594568934027,0.627657138152591,0.56223613919699,0.5857600181752,0.562633190484807,0.528929833252908,0.522534044571181,0.551958954014354,0.527841550898225,0.547837550635743,0.498528325934087,0.534777492425116
-200,Grasp,12m,0.592987669002614,0.548375759798896,0.556932094887631,0.561508761991093,0.505117771223245,0.522083494195905,0.545801774134666,0.539539193781274,0.627365579159915,0.56409527873554,0.583656052227387,0.563894464957849,0.52905937786127,0.522226410030508,0.551759567134132,0.529975083351295,0.545713798421699,0.498060930832778,0.535491701357485
-190,Grasp,12m,0.592260757227243,0.548200594929352,0.557980128294391,0.560518939769065,0.505532505575929,0.523731286064955,0.546599908745629,0.539521220090335,0.627427033312814,0.565087412057969,0.581661935111717,0.564955609260713,0.529056715121025,0.522393940643927,0.552245993576017,0.532931469241578,0.545807666872078,0.498339131061289,0.53636827791157
-180,Grasp,12m,0.591410287077621,0.546607353368659,0.558547068941968,0.560966854154983,0.505054490951144,0.524446044058621,0.548359417166829,0.541537363114661,0.628102833414579,0.565864766779019,0.580150313691117,0.566526769995757,0.528774830794677,0.52150437539871,0.552115557281376,0.533997774369487,0.544527533349416,0.498424407765263,0.536977209909033
-170,Grasp,12m,0.590765369777728,0.545497007077442,0.559226469639926,0.560122309675515,0.504432832813961,0.524834610492673,0.547004780083026,0.543372204308195,0.626675840688541,0.566618918009879,0.579086163506956,0.567869279331388,0.529335813273183,0.522067404412787,0.55153143400417,0.534391969366515,0.545490483670643,0.498081781188262,0.537860195104783
-160,Grasp,12m,0.589620489171819,0.54364604557941,0.560290891599684,0.560205393900425,0.50423268468644,0.525112380088694,0.545794220340445,0.544183471428696,0.62660542479182,0.566516849245259,0.578528163447994,0.569662103602194,0.528966493587828,0.522195180581356,0.551652033109093,0.534992820780786,0.545845576380809,0.497508787619332,0.53845065624527
-150,Grasp,12m,0.588796605289622,0.542569673143536,0.561211730185907,0.557862428924022,0.50404000292558,0.52554781540123,0.547459635765149,0.544955717926392,0.625440770783593,0.567926872361792,0.578135571919011,0.572320396295742,0.528164435859508,0.522219716006164,0.551935348896307,0.535440103701618,0.545638769906575,0.498256116528431,0.539886864844033
-140,Grasp,12m,0.588400073416078,0.541482232187437,0.562147199661436,0.555957585732019,0.506117066342623,0.527952589509301,0.547253182003734,0.545853361126547,0.62453982006311,0.567529676450138,0.577256927445846,0.574542772618624,0.527213573478865,0.521654612972669,0.552317382763219,0.536862404957109,0.542454759941827,0.497154231538455,0.540333494850979
-130,Grasp,12m,0.587781498744403,0.542576272845704,0.562796822759963,0.552986163021102,0.505948712437988,0.529308507003432,0.546946103986512,0.545945455052913,0.624157541835001,0.568830026513462,0.574583797288245,0.575646422760348,0.527033474124324,0.520682563183168,0.551831570217001,0.537958238333622,0.542550860185332,0.496840868146376,0.540695549921439
-120,Grasp,12m,0.587139992600566,0.54323200905744,0.564617338887974,0.551981812267492,0.506697957923102,0.52945604926136,0.546680671475101,0.547332240708088,0.623251488027933,0.568925138573821,0.571353166070314,0.574938054030628,0.526673395084445,0.519633938986344,0.550903401199124,0.538677254695547,0.54269561645977,0.497493810406035,0.542767055628303
-110,Grasp,12m,0.585920495253881,0.543149779330303,0.565911345891009,0.551615006526319,0.507449928783567,0.529840581287592,0.547703805173717,0.549003855008067,0.622451579211846,0.568386655676195,0.568476606725761,0.576120482426552,0.526839222157858,0.51827319203015,0.550674655215049,0.539204942549541,0.542623441149883,0.497634585539566,0.539853530055828
-100,Grasp,12m,0.585601635694791,0.541645047766997,0.567135018407995,0.550823612977333,0.507786329866805,0.531749138295586,0.543836771548806,0.550916175393506,0.621625533788496,0.567634390201197,0.567869707852642,0.577518454878904,0.52765371639325,0.516943008044538,0.551368478011711,0.541441371119413,0.542050952610726,0.497075419315613,0.538743397403375
-90,Grasp,12m,0.584527200318137,0.540565119738856,0.56795308471227,0.549618106315514,0.50818637940033,0.533357660908686,0.54592634858027,0.552433712436194,0.619710816116019,0.567101329807801,0.564298864860826,0.5770378517,0.527802477820053,0.515708745777123,0.551272384455865,0.54295867316191,0.541385789107606,0.497295383057714,0.53980488988946
-80,Grasp,12m,0.582755058364167,0.541324505479031,0.568166012744678,0.548145890655672,0.507867986610602,0.535524328236447,0.545782057903949,0.553780368782276,0.619236854574132,0.56653036646701,0.561570855755944,0.576724884361648,0.528469760123292,0.51448452930346,0.55176420001225,0.543286884882634,0.540893820341723,0.497404288483589,0.539264038369489
-70,Grasp,12m,0.582335026757094,0.542496761949547,0.568789139957306,0.547772127222352,0.508571924550334,0.537798700088222,0.544255895295501,0.554129942430166,0.616580559838491,0.565902231280591,0.561389501529635,0.576579831863104,0.529221531783588,0.514658700576231,0.552306863991693,0.544753022036048,0.541113432700586,0.49686759112063,0.536916656646955
-60,Grasp,12m,0.582270936627546,0.540962575671638,0.570087566412682,0.547188169526074,0.508828303151475,0.539983441265563,0.543497133032753,0.556059525982898,0.614028199563769,0.565195390029139,0.559740009833569,0.575902764362059,0.530133421557983,0.514646693445672,0.552683997616562,0.547817679672058,0.541007799657015,0.496748758101638,0.538073871216453
-50,Grasp,12m,0.580841106987928,0.542013549267185,0.571398666898006,0.54606210248496,0.50864944123472,0.541034835012549,0.543624442470736,0.558422195769145,0.614231567373831,0.56427848336453,0.553972694502201,0.575957085021777,0.530317958057749,0.514977983341566,0.552784018811039,0.550021999939426,0.541275086044074,0.496407994129889,0.536235991444422
-40,Grasp,12m,0.581277664602909,0.54240650701651,0.572556664791487,0.544819299468046,0.507925339939918,0.541828008338646,0.542356763979821,0.561239779066421,0.612557225190417,0.563902268441002,0.554887964514397,0.575901928952264,0.531531603136519,0.514540773465368,0.551970783972376,0.551985162147654,0.540230468724239,0.495852922667006,0.536820216796629
-30,Grasp,12m,0.580531735267666,0.542613148112082,0.572429070584516,0.544179312170302,0.507493470992597,0.542462740910275,0.539560262379524,0.564123754992182,0.612452260675048,0.564000768864127,0.552470872963577,0.576467107876177,0.531950919406263,0.514306310420485,0.551283615693273,0.552830403578263,0.542402422012521,0.495830086481101,0.535416026692233
-20,Grasp,12m,0.580524853526087,0.542930893909223,0.574539191389959,0.543092261944974,0.507516388666741,0.543216390425845,0.539679931497578,0.566758430767008,0.612269787505619,0.562794976723628,0.550436926991966,0.576769677051598,0.532963282226343,0.514330212183293,0.550476139564427,0.554414620603707,0.542276752560268,0.495933551288584,0.534107187059933
-10,Grasp,12m,0.582007594080694,0.544084309152555,0.575854831259939,0.542318994708128,0.506702325168783,0.543637642665674,0.539950497822186,0.568397583414608,0.610203358107722,0.563345551673439,0.550434259571801,0.57669017612468,0.534345308647985,0.514436096349164,0.550255194120373,0.554346030764853,0.541560743913252,0.496580683804525,0.533059122140459
0,Grasp,12m,0.580635078125191,0.543670457531695,0.578102392071452,0.54164238656204,0.506555962197996,0.54305787770459,0.539807380080752,0.570204518786766,0.607901385889127,0.563981187567967,0.552868204116421,0.575789419609036,0.536174253611312,0.514585432287164,0.549960743732298,0.555580108822526,0.541444032677183,0.496723712563932,0.532677848829098
10,Grasp,12m,0.582535883916938,0.542789259732282,0.578449466682954,0.54123788089013,0.505547746287841,0.543910133582404,0.539406250553485,0.572303974621864,0.608604805985131,0.563106032065695,0.552165309968366,0.575234481479411,0.537067639690044,0.515730434105587,0.549873035702423,0.556465026817932,0.53932725626179,0.495851478264381,0.532968367848714
20,Grasp,12m,0.58111580048596,0.543909332715391,0.579684571778105,0.54015796130232,0.506072543600861,0.546122036450462,0.539029740266042,0.57338267289462,0.609822089802099,0.562107565355634,0.552425421319526,0.574927367046764,0.53759356341442,0.515077076329863,0.549806042053946,0.556430861946714,0.538404825241023,0.49615927295756,0.532993597792143
30,Grasp,12m,0.581646645941823,0.543294107484328,0.579729066452714,0.539454267002489,0.50622627723195,0.54700663866226,0.539104489095991,0.574177969183387,0.61002090663613,0.561742629298462,0.550763265552998,0.574041656153511,0.538271137528912,0.515745465329938,0.550040485505899,0.555229331810523,0.538912635828431,0.496083262748411,0.531730361648643
40,Grasp,12m,0.580008779785487,0.541677721737623,0.579472858455045,0.538746790796873,0.506353461161502,0.54709930336692,0.539199934353053,0.5767288706184,0.608791562105404,0.561610189131142,0.55039698853957,0.572946167967314,0.539422191499884,0.515596517809683,0.549770094256946,0.554774330777325,0.538338327237395,0.494784675855561,0.531533623376313
50,Grasp,12m,0.580492677739804,0.541738777553802,0.581835061566758,0.538089739919686,0.505775245482598,0.547272763363114,0.54173570235799,0.57630291841241,0.608401632937914,0.561793252919403,0.547335304348487,0.573147856084434,0.538576240989548,0.515980991883867,0.548720912711068,0.556610052941429,0.537353531874192,0.494903076372191,0.531487155441404
60,Grasp,12m,0.579277325738711,0.541959361852313,0.581412057629795,0.537274020846077,0.505834198837318,0.546705397468419,0.541581391259829,0.576902409892462,0.607126158189428,0.562460913972654,0.545990050418528,0.572745407627357,0.537893610586958,0.516850860017879,0.548386619818661,0.557329206022083,0.537803213205774,0.495107322511201,0.531287770838721
70,Grasp,12m,0.578796925638426,0.540730741648715,0.581936152816231,0.536342145973893,0.505487430854582,0.547121071803748,0.541315067324255,0.578301238133164,0.606737611117429,0.563159223714293,0.545003881081956,0.572696601192807,0.537030527471095,0.516980137999008,0.546719434067898,0.556173765617723,0.537258278768716,0.494330710196375,0.530457005562888
80,Grasp,12m,0.579238534536269,0.540170425272097,0.580938128856303,0.534835633506719,0.503994046894205,0.547530451075446,0.541256057591129,0.578458583645479,0.606633788607359,0.563905877063414,0.543455680511843,0.572173496649383,0.536344700141051,0.517339820500902,0.545462092250265,0.556433165344249,0.536010617331753,0.493772993858941,0.531116369457511
90,Grasp,12m,0.577747807671224,0.540578472370561,0.581837025496218,0.533536250387668,0.502924003712617,0.547175504705849,0.538586714616559,0.578214017228343,0.606879014187257,0.564556424269577,0.5437359755541,0.572126143386116,0.535812973624674,0.517884819348326,0.544379808828619,0.555299193206615,0.536216074226824,0.493600181457616,0.531439580091619
100,Grasp,12m,0.575908504224438,0.541256767840769,0.580643991838221,0.532747968275638,0.502634674105544,0.54676024498488,0.536431341489562,0.580024374111161,0.606875315121931,0.565022916009521,0.542588413403689,0.572540520571311,0.535416695651138,0.519065358568025,0.543955194763176,0.555916131052282,0.534940926066012,0.493458800931341,0.531393782345368
110,Grasp,12m,0.575668858166596,0.540369152966596,0.581357970871012,0.531679361280248,0.502792478854758,0.546445927083156,0.53317077357171,0.580108456238574,0.605917943453354,0.565379415040314,0.542135907622005,0.572688746034019,0.534576161178369,0.519620813025039,0.543974188690147,0.557510165633992,0.534265178560222,0.493561160386246,0.531021379683457
120,Grasp,12m,0.575969136570431,0.539358470965078,0.580826480372812,0.531675488568654,0.50202249981785,0.546712344631396,0.531937211712742,0.580525008975326,0.605651082266716,0.565731717163169,0.542134252526468,0.572628010217916,0.534973371130878,0.519782917376426,0.543373066741935,0.558385971528419,0.534366543372347,0.493820404699125,0.530729182323444
130,Grasp,12m,0.576650780880105,0.539679403974701,0.579184490962509,0.530283795839333,0.501978068882102,0.545732678468134,0.532324019395448,0.580831250559041,0.605258664464639,0.56583709062547,0.542239727828548,0.571577306633331,0.53530925424984,0.519853252978707,0.543226926400913,0.55756076121927,0.533779845846221,0.492779893371648,0.530046799861878
140,Grasp,12m,0.5772707205052,0.53928578076785,0.578082095917576,0.528904568678376,0.50159846659181,0.545172291300049,0.532650824477453,0.580873703260385,0.605001455682086,0.566120606529581,0.54180130422264,0.5729265148931,0.535516149570769,0.51926997483322,0.543324488068048,0.558264555530178,0.533176977160127,0.493098163729801,0.530074330911994
150,Grasp,12m,0.577102793426809,0.538076727528083,0.577383733211532,0.527570310221192,0.501040752170648,0.545104716668445,0.530941274370538,0.579753653586939,0.604870958281065,0.56636705799667,0.541828843452977,0.573077694150966,0.534759654573149,0.518266888155043,0.54294643330722,0.559141137823215,0.532734548234104,0.493193845952738,0.529878100468149
160,Grasp,12m,0.575652559498785,0.537934102001151,0.575468983003367,0.527502754039307,0.499936996325741,0.543957857859667,0.527192674692423,0.581111265190952,0.604604667775868,0.566603691725223,0.541173816912798,0.57244233888816,0.533792371026483,0.518699014576094,0.54249844797078,0.557857376059858,0.531744541175643,0.4927326994575,0.52933751909867
170,Grasp,12m,0.574777519186434,0.537362038582054,0.575275732958157,0.52710878183007,0.498804753381724,0.542777894962816,0.526377842749361,0.577956912078017,0.604210388870122,0.566925745638992,0.54033778395513,0.571658152390283,0.532902061210382,0.519115493799635,0.542934886416188,0.557774555798371,0.531689171052329,0.492362413426965,0.528231225326685
180,Grasp,12m,0.572785003684404,0.536543567984149,0.575621705944484,0.526823944855175,0.497714225955087,0.541589476746169,0.523923343313296,0.577574636027292,0.60217191065779,0.567421784961611,0.539429504029533,0.57282974195613,0.531435743712929,0.518881919970278,0.543382558217618,0.557375984647245,0.532002852581761,0.492234795304366,0.527093083553162
190,Grasp,12m,0.571502580226865,0.535749433278791,0.574876681447742,0.526954431088331,0.497217374069178,0.54063212095918,0.521642305212202,0.577092462161293,0.601886765723571,0.567366385219468,0.538455004960533,0.57418611334055,0.531168318998186,0.518550092321011,0.543578340453313,0.556645850107228,0.532486924365964,0.491898292877538,0.526863681584583
200,Grasp,12m,0.569971413629723,0.535734572306487,0.572860378390357,0.526173089804799,0.497438395291579,0.540291363339063,0.521552254102198,0.5771554460837,0.599006959139287,0.567464003007659,0.537271346966038,0.57411697294246,0.52974658185031,0.519159807117701,0.543552142475017,0.555631302973255,0.531708715580391,0.491854321261178,0.527090818898664
210,Grasp,12m,0.569262944045948,0.535844103045122,0.571828859070068,0.526100152234088,0.497736836949521,0.539712772247693,0.521611213441528,0.575703787238664,0.595760639188954,0.568674961996553,0.537116996932971,0.574245347956728,0.529875711799663,0.519448182408299,0.543636850914234,0.554916448189549,0.532005304590976,0.491552994807673,0.526480306271908
220,Grasp,12m,0.567666446328859,0.535643442649887,0.570125912015222,0.524061247040291,0.498561904491956,0.538389492086658,0.521584032184198,0.575904298095354,0.593628054699638,0.567523994287087,0.536869728777501,0.573197874675155,0.529080239343129,0.520446450788192,0.542265220208515,0.553396056317541,0.532465880871355,0.491053620295414,0.526400353989266
230,Grasp,12m,0.566626167429158,0.534504801336538,0.567834764996246,0.522750892935823,0.497747024824831,0.53791143243332,0.521352514688969,0.574161098165711,0.591594908433059,0.569109646802885,0.537445857180497,0.571659536332725,0.527952342575644,0.520545684757186,0.543918903358352,0.552258386353921,0.531605132319727,0.490850353832352,0.526661867969874
240,Grasp,12m,0.565608178684455,0.534251163224223,0.565489829471592,0.522062378401092,0.497779035037666,0.537200176354352,0.521213540166576,0.57332412253912,0.587374566825322,0.569447891065422,0.538019787610105,0.571560664428547,0.528194974579169,0.520678405426451,0.544527563591326,0.551952077246569,0.531315479207459,0.49042674712143,0.525885716204398
250,Grasp,12m,0.564376458521057,0.533891143847973,0.564090280575249,0.521684244654366,0.497332065323193,0.536556803152381,0.523922081725377,0.572088835640708,0.585249803029162,0.570870015029616,0.538411591016244,0.570749210421699,0.526267932118375,0.521170409313061,0.544810343507869,0.552127710118936,0.53089168598461,0.491297979129396,0.526646200623844
260,Grasp,12m,0.56310352153656,0.534155548034808,0.562506060419441,0.52415803363786,0.496979653690733,0.536145170695393,0.524029940182747,0.570972108824168,0.582927853307566,0.571155457042161,0.538068651647375,0.569840288100931,0.526256356876994,0.521465352102647,0.544174596635732,0.551833682894734,0.530240856732738,0.492022250357796,0.526140479149201
270,Grasp,12m,0.562089780313107,0.533326736612432,0.561975303460388,0.526416618812152,0.496109269586977,0.536326599004007,0.522643739436661,0.569395426532391,0.5820952646764,0.57127634631143,0.540808653204539,0.568941234701027,0.52612616625006,0.521894857444428,0.544688257034393,0.551158067438075,0.531330037130686,0.491330023524692,0.526262873502907
280,Grasp,12m,0.560955959763413,0.532905311698825,0.561881512520819,0.52650884513503,0.495262636771621,0.536734318623007,0.522325947249424,0.568548935706903,0.580646746742532,0.571219370896722,0.541683029390765,0.567967199117361,0.5257715569636,0.521665456604775,0.543680138530254,0.551057559102276,0.53072470197442,0.492164742269837,0.526829563723158
290,Grasp,12m,0.560121263048246,0.532448378677486,0.561132754314243,0.525618503977374,0.494393364807828,0.537122380699449,0.52248945100988,0.569384378228648,0.578027197378005,0.570542108892417,0.539167452056077,0.567724970117863,0.525066428028265,0.52200314152664,0.542849820566074,0.550778286235053,0.529363194659814,0.49259416825106,0.527440076470811
300,Grasp,12m,0.559394174131243,0.53233295100109,0.558842752191458,0.524711010490358,0.494359025879104,0.537589880873414,0.523614858749445,0.568671282433972,0.576814045112386,0.569387158817617,0.538904511760145,0.565967110584424,0.524121431604975,0.522361058853756,0.543433330837865,0.549764275820265,0.529473985561899,0.492902686856114,0.527555992841234
310,Grasp,12m,0.55773833998289,0.531879720597018,0.557845344463726,0.5259080921614,0.494661444968765,0.538021327100435,0.524149311714486,0.567780468905868,0.575653220352574,0.568948922987915,0.537837793282845,0.565421048510449,0.523309471734947,0.522305200854924,0.544936837543783,0.548091512181154,0.531015682866807,0.492575454080389,0.527712725498293
320,Grasp,12m,0.556239322317708,0.530568180246205,0.556759579779831,0.525518815353966,0.495279658582692,0.537802514936325,0.523618314907958,0.565676548675704,0.574386949763304,0.568512584428065,0.537700596380226,0.564953486187753,0.524705470311785,0.521892143725656,0.544641580884167,0.5471995814666,0.531090583870546,0.492961081667232,0.527968365719321
330,Grasp,12m,0.554541458615911,0.52921423664296,0.556183597380014,0.52569331783743,0.493939558240081,0.537738477088735,0.522707408481512,0.564326777240827,0.573395879642056,0.568338752560217,0.53787169759281,0.564212820348012,0.524659539457973,0.521499186181448,0.546237003499696,0.547563083201406,0.53032067518609,0.493284989215433,0.528037807408173
340,Grasp,12m,0.553085826330036,0.528295970824674,0.555915807487235,0.526848656329693,0.494028524774651,0.536839449071461,0.521311566577076,0.56282829934932,0.572808273156213,0.567989518175672,0.53772569109489,0.56279260873808,0.525790388009807,0.521493467712932,0.547344350891691,0.546560606865037,0.530959819871221,0.492800807946429,0.52869449345175
350,Grasp,12m,0.552706586565217,0.527483208020739,0.555505615612955,0.527115965875327,0.494136748059374,0.536371586274038,0.519327745883546,0.561221840245967,0.571208674796644,0.567112463607768,0.537989255720172,0.563063761263633,0.525668070852865,0.521108953372283,0.548082810499201,0.547066959968607,0.531384336387697,0.492892695152543,0.527574433571429
